STEVAL-MKI197V1 (LSM6DSOX)

A_X [mg] 	 A_Y [mg] 	 A_Z [mg] 	G_X [dps] 	 G_Y [dps] 	 G_Z [dps] 	
598 	 849 	 48 	-6.195 	 -10.99 	 -19.705 	
592 	 849 	 50 	-4.41 	 -11.48 	 -19.88 	
593 	 849 	 49 	-2.765 	 -12.04 	 -20.055 	
589 	 851 	 45 	-1.26 	 -12.67 	 -20.265 	
583 	 857 	 42 	0.14 	 -13.3 	 -20.405 	
579 	 862 	 36 	1.4 	 -13.895 	 -20.475 	
579 	 862 	 35 	2.555 	 -14.385 	 -20.475 	
576 	 859 	 31 	3.605 	 -14.77 	 -20.475 	
576 	 862 	 33 	4.62 	 -15.05 	 -20.44 	
574 	 863 	 29 	5.565 	 -14.945 	 -20.335 	
574 	 860 	 11 	6.44 	 -14.595 	 -20.265 	
574 	 852 	 3 	7.14 	 -13.79 	 -20.09 	
574 	 843 	 0 	7.805 	 -12.635 	 -20.02 	
568 	 836 	 -4 	8.505 	 -11.165 	 -19.915 	
562 	 834 	 -7 	9.065 	 -9.555 	 -19.705 	
559 	 834 	 -9 	9.66 	 -8.015 	 -19.46 	
555 	 834 	 -12 	10.29 	 -6.72 	 -19.285 	
548 	 832 	 -13 	10.85 	 -5.565 	 -19.215 	
541 	 829 	 -18 	11.235 	 -4.62 	 -18.935 	
541 	 827 	 -18 	11.585 	 -3.815 	 -18.585 	
538 	 827 	 -19 	11.935 	 -3.22 	 -18.41 	
533 	 829 	 -17 	12.285 	 -2.765 	 -18.13 	
533 	 829 	 -17 	12.39 	 -2.555 	 -17.71 	
533 	 828 	 -19 	12.425 	 -2.625 	 -17.255 	
532 	 832 	 -25 	12.53 	 -2.94 	 -16.835 	
526 	 831 	 -29 	12.6 	 -3.325 	 -16.45 	
527 	 832 	 -25 	12.53 	 -3.92 	 -15.89 	
528 	 833 	 -26 	12.495 	 -4.27 	 -15.26 	
530 	 833 	 -32 	12.39 	 -4.585 	 -14.77 	
524 	 833 	 -38 	12.215 	 -4.69 	 -14.175 	
524 	 827 	 -35 	11.83 	 -4.585 	 -13.615 	
524 	 825 	 -37 	11.62 	 -4.445 	 -12.985 	
522 	 826 	 -46 	11.27 	 -4.34 	 -12.39 	
520 	 826 	 -48 	10.85 	 -4.375 	 -11.76 	
518 	 827 	 -47 	10.43 	 -4.445 	 -11.025 	
517 	 831 	 -47 	10.08 	 -4.725 	 -10.36 	
517 	 833 	 -48 	9.555 	 -5.075 	 -9.66 	
517 	 833 	 -53 	8.995 	 -5.46 	 -8.96 	
517 	 836 	 -49 	8.54 	 -5.845 	 -8.26 	
516 	 841 	 -50 	7.945 	 -6.02 	 -7.56 	
520 	 843 	 -56 	7.28 	 -5.985 	 -6.79 	
522 	 842 	 -63 	6.72 	 -5.67 	 -6.02 	
524 	 841 	 -69 	6.195 	 -5.25 	 -5.355 	
526 	 846 	 -70 	5.46 	 -4.095 	 -4.69 	
528 	 841 	 -73 	5.04 	 -3.115 	 -4.025 	
524 	 838 	 -71 	4.305 	 -1.925 	 -3.325 	
521 	 833 	 -70 	3.78 	 -0.875 	 -2.625 	
514 	 831 	 -70 	3.36 	 -0.175 	 -2.065 	
510 	 829 	 -71 	2.695 	 0.245 	 -1.435 	
509 	 827 	 -66 	2.135 	 0.28 	 -0.805 	
505 	 826 	 -64 	1.785 	 -0.14 	 -0.28 	
508 	 825 	 -66 	1.19 	 -0.525 	 0.35 	
508 	 826 	 -66 	0.56 	 -1.12 	 0.875 	
509 	 827 	 -61 	0.035 	 -1.715 	 1.435 	
512 	 833 	 -63 	-0.385 	 -2.345 	 1.96 	
515 	 833 	 -64 	-0.98 	 -2.695 	 2.52 	
518 	 837 	 -64 	-1.54 	 -2.905 	 3.08 	
524 	 836 	 -63 	-2.1 	 -2.87 	 3.605 	
526 	 838 	 -68 	-2.695 	 -2.695 	 4.025 	
529 	 837 	 -67 	-3.185 	 -2.415 	 4.515 	
532 	 838 	 -63 	-3.675 	 -1.89 	 4.97 	
535 	 842 	 -58 	-4.165 	 -1.12 	 5.355 	
543 	 840 	 -61 	-4.445 	 -0.28 	 5.74 	
544 	 836 	 -64 	-4.76 	 0.595 	 6.09 	
547 	 828 	 -65 	-5.18 	 1.505 	 6.51 	
547 	 821 	 -62 	-5.32 	 2.275 	 6.86 	
545 	 815 	 -60 	-5.355 	 2.73 	 7.175 	
542 	 815 	 -57 	-5.32 	 2.94 	 7.49 	
540 	 815 	 -48 	-5.39 	 2.695 	 7.805 	
540 	 813 	 -43 	-5.285 	 2.065 	 8.05 	
541 	 813 	 -42 	-5.075 	 1.225 	 8.33 	
542 	 813 	 -42 	-4.97 	 0.21 	 8.61 	
546 	 815 	 -45 	-4.865 	 -0.63 	 8.89 	
554 	 814 	 -42 	-4.585 	 -1.225 	 9.17 	
557 	 816 	 -44 	-4.55 	 -1.54 	 9.415 	
563 	 817 	 -43 	-4.34 	 -1.715 	 9.73 	
567 	 826 	 -39 	-4.2 	 -1.645 	 10.045 	
571 	 834 	 -35 	-3.99 	 -1.435 	 10.29 	
573 	 838 	 -30 	-3.85 	 -1.12 	 10.535 	
582 	 836 	 -33 	-3.605 	 -0.84 	 10.885 	
585 	 834 	 -33 	-3.43 	 -0.28 	 11.2 	
586 	 833 	 -32 	-3.22 	 0.525 	 11.34 	
589 	 831 	 -31 	-2.94 	 1.435 	 11.55 	
590 	 830 	 -32 	-2.52 	 2.45 	 11.795 	
590 	 822 	 -36 	-2.17 	 3.43 	 11.83 	
588 	 818 	 -35 	-1.715 	 4.375 	 11.9 	
585 	 811 	 -31 	-1.295 	 5.18 	 11.935 	
580 	 809 	 -27 	-0.63 	 5.53 	 11.9 	
574 	 810 	 -22 	0.07 	 5.635 	 11.83 	
571 	 810 	 -19 	0.56 	 5.53 	 11.725 	
570 	 808 	 -16 	1.225 	 5.11 	 11.62 	
573 	 808 	 -20 	1.785 	 4.725 	 11.515 	
576 	 807 	 -20 	2.52 	 4.27 	 11.375 	
579 	 807 	 -22 	3.185 	 4.13 	 11.2 	
581 	 807 	 -24 	3.85 	 4.305 	 10.99 	
592 	 807 	 -27 	4.48 	 4.83 	 10.85 	
596 	 814 	 -16 	5.11 	 5.67 	 10.71 	
602 	 823 	 -1 	5.81 	 6.825 	 10.43 	
610 	 830 	 2 	6.58 	 8.015 	 10.29 	
621 	 833 	 6 	7.28 	 9.275 	 10.185 	
630 	 839 	 20 	8.05 	 10.605 	 9.94 	
636 	 847 	 38 	9.135 	 11.795 	 9.8 	
633 	 844 	 40 	10.465 	 12.74 	 9.695 	
634 	 837 	 36 	11.795 	 13.195 	 9.695 	
641 	 824 	 49 	13.37 	 13.09 	 9.555 	
649 	 830 	 84 	15.33 	 12.705 	 9.31 	
662 	 851 	 122 	17.675 	 12.46 	 8.96 	
689 	 870 	 136 	20.265 	 12.845 	 8.855 	
711 	 880 	 150 	23.065 	 14.315 	 8.61 	
758 	 902 	 212 	26.18 	 17.36 	 8.435 	
812 	 915 	 230 	29.89 	 22.785 	 7.945 	
777 	 880 	 262 	33.355 	 31.955 	 6.895 	
827 	 836 	 174 	37.835 	 42.245 	 6.58 	
813 	 811 	 181 	44.03 	 55.65 	 6.335 	
798 	 765 	 148 	49.945 	 68.075 	 5.18 	
762 	 641 	 114 	56.84 	 79.555 	 4.34 	
721 	 605 	 125 	65.135 	 89.46 	 3.01 	
684 	 622 	 164 	73.745 	 96.845 	 1.19 	
607 	 642 	 224 	83.055 	 101.605 	 -0.035 	
573 	 655 	 190 	93.45 	 102.62 	 -0.525 	
573 	 673 	 177 	103.11 	 99.155 	 -1.365 	
555 	 661 	 223 	112.42 	 91.28 	 -2.24 	
558 	 651 	 330 	122.115 	 78.575 	 -1.995 	
515 	 697 	 196 	132.37 	 65.975 	 -1.855 	
448 	 792 	 17 	143.045 	 55.125 	 -3.5 	
492 	 808 	 177 	150.01 	 48.755 	 -3.325 	
495 	 673 	 357 	157.815 	 46.2 	 -1.995 	
460 	 648 	 166 	168.21 	 45.01 	 -3.745 	
315 	 698 	 -67 	174.58 	 44.52 	 -6.405 	
266 	 666 	 -70 	179.2 	 44.52 	 -6.895 	
356 	 550 	 33 	185.325 	 42.665 	 -6.265 	
242 	 543 	 -174 	192.92 	 44.135 	 -7.7 	
153 	 699 	 -429 	201.81 	 44.59 	 -10.01 	
113 	 680 	 -546 	206.01 	 47.915 	 -10.08 	
147 	 559 	 -481 	210.35 	 54.46 	 -9.94 	
138 	 498 	 -506 	218.715 	 63.315 	 -11.235 	
33 	 479 	 -655 	224.665 	 73.57 	 -11.865 	
-50 	 404 	 -711 	227.395 	 84.21 	 -10.92 	
-99 	 337 	 -720 	232.365 	 94.535 	 -9.52 	
-151 	 299 	 -833 	238.35 	 104.545 	 -8.785 	
-256 	 231 	 -867 	241.01 	 115.675 	 -7.665 	
-339 	 91 	 -833 	242.13 	 126.525 	 -4.305 	
-354 	 -19 	 -803 	242.9 	 138.985 	 0.315 	
-187 	 -75 	 -807 	237.72 	 155.4 	 10.08 	
227 	 -203 	 -823 	225.82 	 179.48 	 28.07 	
731 	 -26 	 -1074 	209.965 	 212.695 	 47.46 	
871 	 843 	 -1357 	181.615 	 248.99 	 61.215 	
273 	 1828 	 -1384 	137.41 	 257.775 	 74.235 	
-228 	 1911 	 -1292 	90.58 	 212.17 	 101.08 	
-472 	 1824 	 -1081 	35.28 	 99.05 	 136.29 	
-145 	 2010 	 -1078 	-26.88 	 -65.1 	 176.12 	
676 	 1953 	 -1680 	-85.12 	 -234.745 	 220.325 	
1863 	 1795 	 -3290 	-144.55 	 -363.44 	 265.335 	
2636 	 1571 	 -4324 	-215.25 	 -411.04 	 305.55 	
2635 	 1365 	 -4419 	-293.405 	 -395.255 	 344.33 	
2319 	 1202 	 -3807 	-367.955 	 -357.875 	 386.295 	
1933 	 1081 	 -3063 	-437.675 	 -339.535 	 426.93 	
1633 	 742 	 -2451 	-506.45 	 -364.105 	 463.12 	
1371 	 226 	 -2200 	-566.965 	 -425.845 	 496.265 	
1353 	 -178 	 -2107 	-620.27 	 -497.735 	 531.23 	
1807 	 -620 	 -1744 	-667.38 	 -554.575 	 563.85 	
2314 	 -1059 	 -1317 	-696.78 	 -576.205 	 583.1 	
2661 	 -1198 	 -1330 	-711.445 	 -557.795 	 586.18 	
3077 	 -2006 	 -1794 	-719.215 	 -494.935 	 578.095 	
3451 	 -3329 	 -2025 	-714.945 	 -381.675 	 551.705 	
3853 	 -4192 	 -2316 	-698.6 	 -227.99 	 500.815 	
3609 	 -4380 	 -1941 	-679.665 	 -58.87 	 421.435 	
3064 	 -4492 	 -920 	-658.245 	 81.445 	 322.945 	
2214 	 -4558 	 272 	-616.805 	 164.08 	 207.76 	
1589 	 -4487 	 771 	-553.315 	 180.74 	 87.045 	
1420 	 -3976 	 908 	-488.46 	 153.615 	 -27.965 	
1865 	 -3623 	 1581 	-424.095 	 112.56 	 -135.03 	
2500 	 -2985 	 1927 	-350.49 	 92.19 	 -239.925 	
2798 	 -2200 	 1797 	-277.2 	 113.75 	 -342.335 	
2607 	 -1617 	 2074 	-211.995 	 171.36 	 -435.75 	
1934 	 -979 	 2752 	-147.245 	 234.5 	 -516.985 	
965 	 -343 	 3269 	-80.465 	 266.595 	 -584.57 	
87 	 277 	 3424 	-20.265 	 248.78 	 -635.775 	
-244 	 857 	 3354 	27.685 	 192.08 	 -667.135 	
-38 	 1270 	 3118 	65.765 	 128.1 	 -683.83 	
156 	 1593 	 2628 	97.37 	 84.455 	 -692.65 	
149 	 1878 	 1980 	120.96 	 69.65 	 -691.495 	
-4 	 1956 	 1639 	135.73 	 78.015 	 -677.635 	
-255 	 1863 	 1557 	148.855 	 92.96 	 -655.445 	
-736 	 1856 	 1377 	163.73 	 100.45 	 -629.195 	
-1299 	 1884 	 1154 	175.315 	 94.255 	 -596.05 	
-1503 	 1761 	 926 	182.91 	 78.19 	 -554.61 	
-1424 	 1593 	 761 	190.435 	 65.695 	 -511.49 	
-1277 	 1437 	 467 	198.905 	 63.245 	 -470.435 	
-1333 	 1294 	 188 	205.73 	 71.12 	 -431.06 	
-1601 	 1103 	 120 	210.385 	 81.2 	 -390.215 	
-1780 	 960 	 125 	215.81 	 84.875 	 -344.575 	
-1597 	 774 	 17 	221.06 	 79.03 	 -298.655 	
-1445 	 649 	 -70 	223.51 	 68.425 	 -260.015 	
-1519 	 591 	 -36 	223.93 	 57.47 	 -223.825 	
-1484 	 586 	 -82 	224.245 	 45.745 	 -184.205 	
-1313 	 586 	 -173 	223.265 	 35.735 	 -145.32 	
-1165 	 574 	 -237 	219.59 	 27.16 	 -110.985 	
-1126 	 609 	 -290 	215.39 	 21.49 	 -79.66 	
-1083 	 649 	 -344 	210.21 	 19.005 	 -48.475 	
-944 	 641 	 -391 	203.385 	 18.48 	 -18.515 	
-807 	 625 	 -417 	195.545 	 19.495 	 7.455 	
-742 	 665 	 -460 	187.075 	 20.965 	 30.03 	
-684 	 682 	 -482 	177.45 	 22.575 	 51.38 	
-565 	 678 	 -507 	167.685 	 24.045 	 71.365 	
-442 	 677 	 -545 	157.85 	 25.76 	 88.305 	
-377 	 684 	 -548 	147.455 	 27.65 	 102.06 	
-333 	 684 	 -511 	137.27 	 30.24 	 114.415 	
-245 	 688 	 -520 	128.17 	 33.845 	 125.825 	
-112 	 665 	 -576 	119.21 	 38.78 	 135.135 	
-4 	 611 	 -584 	110.25 	 45.43 	 141.785 	
58 	 572 	 -556 	102.13 	 52.92 	 146.895 	
110 	 557 	 -559 	95.13 	 59.885 	 151.2 	
154 	 537 	 -561 	88.55 	 65.94 	 154.525 	
197 	 505 	 -544 	82.67 	 70.91 	 156.38 	
232 	 485 	 -517 	77.595 	 75.145 	 157.045 	
267 	 470 	 -505 	73.255 	 79.485 	 156.87 	
319 	 457 	 -498 	69.405 	 83.755 	 156.065 	
355 	 435 	 -477 	66.045 	 88.06 	 154.385 	
365 	 437 	 -449 	63.105 	 92.4 	 151.76 	
380 	 446 	 -445 	60.795 	 95.9 	 149.1 	
380 	 445 	 -427 	58.73 	 99.54 	 146.09 	
403 	 435 	 -446 	56.805 	 102.585 	 142.24 	
394 	 428 	 -442 	55.335 	 106.4 	 138.215 	
403 	 437 	 -445 	54.565 	 110.6 	 134.435 	
433 	 453 	 -428 	53.69 	 115.92 	 129.99 	
419 	 478 	 -406 	53.06 	 123.13 	 124.635 	
388 	 493 	 -412 	52.955 	 132.02 	 119.525 	
394 	 483 	 -442 	52.815 	 142.24 	 115.08 	
400 	 460 	 -455 	52.5 	 153.545 	 110.075 	
381 	 442 	 -457 	52.885 	 165.025 	 104.65 	
352 	 435 	 -458 	53.69 	 175.7 	 99.785 	
333 	 425 	 -451 	54.32 	 185.185 	 95.095 	
302 	 425 	 -431 	55.265 	 193.095 	 90.44 	
262 	 435 	 -414 	56.525 	 199.255 	 86.275 	
229 	 445 	 -406 	57.855 	 203.56 	 82.67 	
191 	 448 	 -396 	59.185 	 206.675 	 79.52 	
155 	 437 	 -405 	60.76 	 208.32 	 76.58 	
123 	 421 	 -427 	62.37 	 209.09 	 73.92 	
66 	 380 	 -447 	63.98 	 209.3 	 71.75 	
9 	 324 	 -447 	65.03 	 209.09 	 69.965 	
-42 	 270 	 -436 	65.52 	 208.705 	 68.95 	
-70 	 235 	 -459 	66.605 	 207.725 	 68.81 	
-121 	 209 	 -529 	67.27 	 205.73 	 68.635 	
-162 	 71 	 -646 	64.96 	 201.355 	 69.72 	
-64 	 -190 	 -846 	58.38 	 193.13 	 77.07 	
358 	 -405 	 -1166 	45.605 	 180.32 	 94.15 	
1023 	 -63 	 -1597 	24.745 	 159.04 	 112.245 	
1449 	 1091 	 -2429 	-3.85 	 126.14 	 126.35 	
1375 	 2161 	 -2129 	-42.07 	 83.79 	 149.24 	
1589 	 2137 	 -988 	-90.265 	 10.185 	 188.23 	
2093 	 1900 	 -1041 	-134.015 	 -94.85 	 225.54 	
1515 	 1989 	 -1831 	-183.68 	 -216.685 	 245.98 	
780 	 1573 	 -2433 	-249.13 	 -340.935 	 280.14 	
1263 	 952 	 -3081 	-313.25 	 -438.13 	 336.35 	
2540 	 675 	 -3829 	-378.315 	 -478.66 	 387.135 	
3093 	 293 	 -3505 	-451.15 	 -465.78 	 413.875 	
2339 	 -27 	 -2661 	-513.205 	 -436.24 	 427.735 	
1217 	 -219 	 -2511 	-564.34 	 -420.805 	 449.47 	
930 	 -729 	 -2461 	-621.425 	 -427.455 	 478.975 	
1422 	 -1397 	 -2038 	-675.43 	 -441.7 	 495.005 	
1709 	 -1766 	 -2049 	-712.67 	 -439.495 	 486.64 	
1400 	 -1725 	 -2190 	-741.09 	 -398.02 	 465.395 	
1867 	 -1946 	 -2454 	-766.85 	 -309.61 	 442.96 	
2707 	 -2946 	 -2477 	-780.605 	 -161.42 	 397.11 	
3011 	 -4079 	 -2565 	-779.415 	 30.03 	 315.315 	
2727 	 -4516 	 -2372 	-771.05 	 232.155 	 214.725 	
1970 	 -4590 	 -1424 	-755.055 	 401.66 	 101.185 	
1104 	 -4624 	 217 	-716.45 	 495.18 	 -19.04 	
656 	 -4244 	 1525 	-652.26 	 495.425 	 -133.42 	
948 	 -3771 	 1959 	-574.945 	 426.65 	 -234.99 	
1595 	 -3214 	 2096 	-499.87 	 348.425 	 -322.14 	
2160 	 -2452 	 2467 	-428.295 	 304.955 	 -392.245 	
2384 	 -1794 	 3127 	-349.65 	 304.36 	 -446.11 	
2143 	 -964 	 3508 	-265.3 	 322.105 	 -488.285 	
1517 	 -69 	 3841 	-187.53 	 325.01 	 -519.645 	
717 	 673 	 4310 	-119.84 	 294.49 	 -534.835 	
95 	 1304 	 4399 	-59.01 	 232.505 	 -529.655 	
-141 	 1848 	 4060 	-8.82 	 158.865 	 -509.355 	
-124 	 2218 	 3635 	29.12 	 93.625 	 -483.98 	
-267 	 2438 	 3224 	59.955 	 52.185 	 -458.36 	
-600 	 2630 	 2800 	87.22 	 38.22 	 -427.21 	
-902 	 2597 	 2526 	111.055 	 41.65 	 -388.185 	
-1126 	 2368 	 2320 	132.965 	 46.62 	 -347.445 	
-1490 	 2177 	 2087 	152.705 	 43.26 	 -309.89 	
-1858 	 2008 	 1952 	169.19 	 30.275 	 -271.95 	
-1900 	 1825 	 1814 	185.99 	 14.7 	 -230.51 	
-1672 	 1598 	 1510 	204.19 	 6.51 	 -190.4 	
-1498 	 1354 	 1174 	220.01 	 9.66 	 -155.925 	
-1529 	 1163 	 1023 	233.345 	 20.72 	 -124.81 	
-1571 	 1061 	 951 	246.645 	 32.515 	 -93.485 	
-1444 	 934 	 912 	260.33 	 42.49 	 -62.51 	
-1237 	 802 	 769 	273.7 	 49.91 	 -35.245 	
-1083 	 688 	 566 	284.27 	 56.77 	 -11.69 	
-956 	 585 	 463 	290.885 	 63.245 	 10.57 	
-821 	 515 	 486 	296.625 	 69.335 	 31.36 	
-626 	 499 	 374 	302.435 	 72.94 	 49.735 	
-456 	 459 	 249 	305.445 	 74.235 	 65.485 	
-299 	 397 	 228 	305.095 	 72.31 	 78.82 	
-148 	 380 	 228 	304.675 	 67.305 	 90.09 	
-9 	 387 	 142 	303.73 	 59.92 	 99.435 	
118 	 366 	 47 	300.51 	 51.415 	 106.75 	
254 	 324 	 0 	295.54 	 42.875 	 112.14 	
394 	 302 	 -50 	290.78 	 35.665 	 115.465 	
538 	 326 	 -143 	285.6 	 30.8 	 116.655 	
660 	 345 	 -209 	279.265 	 28.875 	 115.675 	
730 	 355 	 -246 	272.755 	 29.715 	 113.365 	
790 	 373 	 -304 	266.805 	 32.69 	 110.46 	
859 	 388 	 -362 	260.12 	 37.45 	 106.47 	
894 	 393 	 -375 	252.98 	 42.98 	 100.905 	
875 	 388 	 -398 	246.575 	 49.07 	 94.71 	
873 	 396 	 -466 	240.625 	 55.195 	 89.04 	
915 	 383 	 -487 	234.045 	 61.25 	 82.985 	
952 	 386 	 -460 	227.78 	 68.11 	 75.67 	
916 	 402 	 -464 	222.6 	 75.25 	 68.18 	
859 	 422 	 -522 	217.525 	 82.95 	 61.145 	
823 	 413 	 -550 	212.1 	 90.58 	 54.635 	
809 	 392 	 -525 	207.06 	 97.615 	 47.95 	
777 	 399 	 -512 	203 	 103.67 	 41.055 	
751 	 450 	 -507 	199.185 	 108.15 	 34.335 	
785 	 464 	 -507 	195.265 	 110.81 	 28.455 	
814 	 487 	 -440 	191.625 	 112.14 	 22.295 	
772 	 513 	 -442 	188.23 	 111.265 	 16.45 	
775 	 540 	 -457 	184.905 	 108.5 	 12.04 	
785 	 559 	 -425 	181.79 	 104.58 	 7.7 	
760 	 568 	 -416 	179.095 	 100.205 	 2.59 	
727 	 579 	 -463 	176.785 	 96.705 	 -2.065 	
708 	 549 	 -480 	174.37 	 94.5 	 -5.81 	
728 	 528 	 -505 	172.55 	 94.29 	 -10.71 	
697 	 517 	 -536 	171.29 	 96.355 	 -15.785 	
679 	 506 	 -558 	169.785 	 100.03 	 -20.16 	
711 	 489 	 -590 	168.805 	 104.895 	 -24.395 	
681 	 518 	 -544 	168.28 	 112.175 	 -29.47 	
646 	 553 	 -526 	167.44 	 120.82 	 -34.3 	
627 	 549 	 -537 	166.985 	 130.375 	 -37.73 	
645 	 521 	 -557 	166.985 	 140.245 	 -40.705 	
643 	 478 	 -608 	166.845 	 148.82 	 -44.1 	
652 	 420 	 -548 	166.635 	 154.42 	 -46.97 	
431 	 431 	 -548 	168.42 	 160.475 	 -49.805 	
498 	 461 	 -676 	169.925 	 161.945 	 -52.325 	
477 	 437 	 -627 	169.925 	 164.535 	 -53.48 	
429 	 430 	 -510 	172.235 	 166.95 	 -54.635 	
451 	 444 	 -592 	175 	 167.965 	 -56.35 	
345 	 432 	 -650 	176.295 	 169.61 	 -57.68 	
225 	 382 	 -600 	177.555 	 171.01 	 -58.31 	
175 	 260 	 -594 	179.55 	 170.1 	 -58.8 	
-23 	 66 	 -662 	180.565 	 167.09 	 -61.075 	
-448 	 -109 	 -707 	180.425 	 159.495 	 -67.83 	
-836 	 -348 	 -792 	178.85 	 140.91 	 -73.01 	
-882 	 -801 	 -1179 	176.435 	 102.655 	 -70.455 	
-548 	 -1087 	 -1775 	162.75 	 41.02 	 -59.36 	
-84 	 -752 	 -2101 	131.985 	 -40.215 	 -39.515 	
981 	 723 	 -2568 	95.515 	 -129.955 	 -20.3 	
1165 	 1829 	 -2777 	55.23 	 -192.15 	 -5.145 	
806 	 1957 	 -2889 	7.385 	 -221.095 	 25.025 	
831 	 1800 	 -3391 	-44.45 	 -219.59 	 71.785 	
973 	 1353 	 -3991 	-107.905 	 -195.685 	 115.885 	
822 	 970 	 -4018 	-187.04 	 -169.085 	 152.845 	
525 	 629 	 -3628 	-265.72 	 -154.14 	 195.37 	
477 	 465 	 -3549 	-341.635 	 -160.195 	 247.31 	
476 	 93 	 -3262 	-423.465 	 -187.74 	 300.37 	
389 	 -394 	 -2683 	-502.635 	 -237.79 	 349.51 	
79 	 -751 	 -2378 	-568.995 	 -302.12 	 397.565 	
-102 	 -1109 	 -2403 	-629.02 	 -368.41 	 449.82 	
92 	 -1549 	 -2115 	-683.34 	 -419.615 	 502.215 	
447 	 -1792 	 -1692 	-723.625 	 -448.455 	 544.25 	
546 	 -1617 	 -1346 	-748.3 	 -449.82 	 573.65 	
659 	 -1381 	 -1132 	-762.16 	 -424.83 	 594.825 	
971 	 -1584 	 -1249 	-766.15 	 -371.805 	 606.445 	
1659 	 -2473 	 -1440 	-761.81 	 -284.41 	 606.095 	
2485 	 -3734 	 -1474 	-747.95 	 -158.655 	 582.61 	
2818 	 -3954 	 -1338 	-728.98 	 -1.75 	 529.585 	
2581 	 -3740 	 -804 	-710.22 	 154.175 	 459.095 	
2305 	 -3537 	 263 	-683.095 	 274.155 	 377.58 	
1821 	 -3291 	 1265 	-635.74 	 333.97 	 284.935 	
1469 	 -3160 	 1926 	-571.795 	 332.78 	 189.7 	
1603 	 -2764 	 2064 	-506.45 	 288.995 	 99.26 	
1924 	 -2395 	 2617 	-435.96 	 236.075 	 15.995 	
2401 	 -1693 	 2783 	-357.665 	 196.035 	 -60.27 	
2791 	 -932 	 2784 	-281.68 	 185.535 	 -128.87 	
3041 	 -438 	 3033 	-209.51 	 202.405 	 -189.945 	
2852 	 164 	 3237 	-136.92 	 231.7 	 -245.595 	
2258 	 760 	 3434 	-68.74 	 250.46 	 -290.57 	
1625 	 1209 	 3664 	-7.14 	 240.485 	 -320.705 	
1222 	 1624 	 3662 	48.3 	 199.71 	 -337.785 	
1090 	 2032 	 3370 	95.445 	 142.205 	 -345.835 	
1112 	 2316 	 2946 	133.28 	 88.34 	 -347.655 	
1084 	 2488 	 2511 	164.115 	 52.99 	 -343.805 	
983 	 2614 	 2065 	189.385 	 38.64 	 -334.11 	
822 	 2557 	 1786 	209.265 	 39.48 	 -320.39 	
589 	 2412 	 1624 	226.485 	 44.8 	 -305.83 	
272 	 2284 	 1468 	242.655 	 47.985 	 -289.625 	
49 	 2082 	 1301 	256.935 	 45.325 	 -270.55 	
-63 	 1810 	 1146 	269.01 	 37.17 	 -251.265 	
-200 	 1552 	 1009 	280.28 	 26.355 	 -234.255 	
-341 	 1307 	 800 	291.165 	 16.905 	 -218.505 	
-365 	 1066 	 534 	299.88 	 12.495 	 -202.825 	
-251 	 831 	 372 	306.495 	 15.995 	 -188.93 	
-183 	 648 	 283 	312.795 	 26.565 	 -177.905 	
-200 	 582 	 172 	318.78 	 38.955 	 -168.21 	
-197 	 529 	 103 	323.015 	 48.37 	 -157.185 	
-83 	 460 	 78 	325.43 	 52.045 	 -145.67 	
22 	 425 	 40 	326.305 	 50.015 	 -135.975 	
33 	 457 	 -55 	325.605 	 44.485 	 -126.805 	
66 	 471 	 -155 	322.735 	 36.925 	 -116.13 	
148 	 436 	 -245 	318.255 	 29.54 	 -105.7 	
214 	 421 	 -358 	312.62 	 24.15 	 -97.09 	
242 	 442 	 -467 	305.935 	 21.945 	 -89.355 	
289 	 449 	 -525 	297.885 	 23.135 	 -81.655 	
381 	 463 	 -556 	289.415 	 27.475 	 -74.795 	
423 	 495 	 -597 	280.56 	 34.93 	 -69.265 	
427 	 517 	 -651 	271.18 	 43.96 	 -64.155 	
426 	 498 	 -688 	261.38 	 53.2 	 -59.045 	
423 	 481 	 -699 	251.545 	 61.46 	 -54.53 	
399 	 472 	 -690 	241.955 	 67.69 	 -50.785 	
360 	 485 	 -673 	232.54 	 71.68 	 -47.635 	
346 	 501 	 -636 	223.405 	 73.64 	 -44.765 	
345 	 511 	 -607 	214.34 	 74.2 	 -42.595 	
306 	 521 	 -604 	205.45 	 74.34 	 -41.37 	
280 	 529 	 -624 	197.26 	 74.34 	 -40.355 	
303 	 524 	 -630 	189.14 	 74.62 	 -39.27 	
314 	 506 	 -620 	181.545 	 76.195 	 -39.095 	
315 	 509 	 -631 	174.72 	 79.03 	 -39.585 	
317 	 542 	 -630 	167.93 	 83.475 	 -39.97 	
324 	 555 	 -598 	161.525 	 89.145 	 -40.53 	
319 	 565 	 -592 	156.1 	 96.39 	 -41.755 	
296 	 573 	 -629 	151.2 	 104.02 	 -42.385 	
300 	 539 	 -634 	145.915 	 111.965 	 -42.84 	
311 	 505 	 -619 	141.435 	 120.12 	 -43.96 	
273 	 493 	 -610 	138.11 	 128.415 	 -45.675 	
219 	 496 	 -648 	135.625 	 135.905 	 -47.075 	
208 	 492 	 -644 	132.895 	 143.92 	 -47.985 	
221 	 461 	 -626 	129.22 	 151.48 	 -48.86 	
226 	 450 	 -549 	127.61 	 160.51 	 -50.54 	
216 	 480 	 -608 	127.12 	 170.8 	 -52.325 	
216 	 496 	 -652 	125.16 	 181.895 	 -53.515 	
183 	 471 	 -596 	123.165 	 193.76 	 -54.635 	
