STEVAL-MKI197V1 (LSM6DSOX)

A_X [mg] 	 A_Y [mg] 	 A_Z [mg] 	G_X [dps] 	 G_Y [dps] 	 G_Z [dps] 	
-94 	 -3304 	 -3602 	 88.34 	 211.085 	 -13.825 	
-372 	 -2880 	 -3802 	 73.675 	 297.43 	 -9.1 	
-1179 	 -2707 	 -3883 	 48.58 	 367.115 	 -3.255 	
-2035 	 -2582 	 -3350 	 5.355 	 390.145 	 3.325 	
-2339 	 -2420 	 -2735 	 -43.26 	 360.64 	 10.675 	
-2226 	 -2056 	 -2748 	 -92.75 	 288.05 	 9.765 	
-2246 	 -1675 	 -2752 	 -155.68 	 199.43 	 1.33 	
-1970 	 -1554 	 -2587 	 -228.62 	 114.73 	 -2.905 	
-1520 	 -1327 	 -2475 	 -301.35 	 51.625 	 -6.79 	
-1232 	 -1018 	 -2420 	 -378.49 	 10.78 	 -17.325 	
-1577 	 -670 	 -1861 	 -458.605 	 -13.79 	 -31.675 	
-2094 	 -181 	 -1077 	 -534.065 	 -37.31 	 -40.18 	
-2300 	 238 	 -362 	 -602.21 	 -59.185 	 -41.545 	
-2123 	 556 	 234 	 -664.475 	 -72.94 	 -40.565 	
-1999 	 770 	 1008 	 -718.13 	 -70.77 	 -39.9 	
-1965 	 711 	 1845 	 -754.53 	 -50.155 	 -34.195 	
-1762 	 469 	 2569 	 -771.505 	 -16.135 	 -20.055 	
-1495 	 47 	 3273 	 -772.695 	 21.245 	 -3.955 	
-1438 	 -465 	 4412 	 -753.585 	 52.465 	 8.925 	
-1880 	 -798 	 5483 	 -709.66 	 62.755 	 19.74 	
-2286 	 -811 	 6120 	 -643.79 	 40.635 	 44.45 	
-2082 	 -880 	 6466 	 -562.24 	 -7.175 	 80.22 	
-1612 	 -922 	 6694 	 -466.06 	 -63.455 	 113.575 	
-1279 	 -976 	 6697 	 -355.18 	 -116.62 	 141.61 	
-1200 	 -845 	 6254 	 -236.39 	 -160.475 	 165.13 	
-1134 	 -729 	 5962 	 -116.095 	 -188.86 	 189.245 	
-696 	 -810 	 5563 	 6.405 	 -202.51 	 209.02 	
-274 	 -725 	 4892 	 126.28 	 -196.0 	 215.425 	
-48 	 -669 	 4318 	 232.96 	 -170.17 	 211.89 	
62 	 -685 	 3877 	 325.955 	 -130.97 	 203.07 	
177 	 -570 	 3373 	 405.615 	 -88.83 	 189.385 	
131 	 -314 	 2846 	 469.42 	 -54.075 	 170.065 	
-30 	 -25 	 2378 	 515.2 	 -37.975 	 148.365 	
-161 	 197 	 1957 	 545.02 	 -36.785 	 127.54 	
-89 	 296 	 1399 	 561.61 	 -45.535 	 108.255 	
132 	 327 	 708 	 564.095 	 -56.735 	 86.31 	
205 	 260 	 54 	 553.175 	 -63.0 	 59.22 	
139 	 185 	 -572 	 532.455 	 -58.8 	 30.38 	
120 	 164 	 -1134 	 504.07 	 -43.12 	 3.675 	
165 	 98 	 -1337 	 470.61 	 -16.94 	 -21.035 	
173 	 18 	 -1412 	 438.515 	 12.04 	 -45.15 	
-61 	 -25 	 -1503 	 406.385 	 34.37 	 -68.145 	
-370 	 -87 	 -1507 	 371.875 	 40.53 	 -86.45 	
-533 	 -199 	 -1418 	 336.805 	 29.785 	 -99.925 	
-508 	 -312 	 -1422 	 303.87 	 10.85 	 -111.475 	
-431 	 -386 	 -1529 	 271.775 	 -4.62 	 -123.375 	
-409 	 -443 	 -1535 	 240.345 	 -9.695 	 -134.295 	
-462 	 -470 	 -1416 	 212.065 	 -4.83 	 -142.94 	
-578 	 -464 	 -1321 	 187.985 	 4.935 	 -149.345 	
-691 	 -468 	 -1249 	 166.215 	 14.21 	 -153.65 	
-752 	 -490 	 -1141 	 145.915 	 20.51 	 -156.17 	
-793 	 -515 	 -1000 	 128.03 	 24.57 	 -157.71 	
-844 	 -508 	 -898 	 113.295 	 27.16 	 -158.13 	
-898 	 -510 	 -833 	 100.66 	 28.735 	 -157.045 	
-927 	 -537 	 -752 	 89.81 	 29.015 	 -154.77 	
-945 	 -561 	 -656 	 80.815 	 28.385 	 -152.285 	
-980 	 -558 	 -581 	 73.99 	 26.985 	 -149.45 	
-1012 	 -538 	 -521 	 68.915 	 25.41 	 -145.6 	
-1026 	 -535 	 -461 	 65.24 	 23.94 	 -141.155 	
-1035 	 -546 	 -425 	 62.93 	 23.065 	 -136.675 	
-1046 	 -557 	 -393 	 61.705 	 22.26 	 -132.055 	
-1052 	 -577 	 -355 	 61.215 	 21.49 	 -127.12 	
-1051 	 -593 	 -317 	 61.705 	 20.37 	 -122.15 	
-1074 	 -580 	 -275 	 63.245 	 19.18 	 -117.53 	
-1113 	 -557 	 -250 	 65.555 	 18.34 	 -112.7 	
-1115 	 -548 	 -248 	 68.25 	 18.13 	 -107.415 	
-1073 	 -555 	 -243 	 70.98 	 19.705 	 -102.165 	
-1045 	 -579 	 -241 	 74.06 	 23.1 	 -97.685 	
-1054 	 -585 	 -246 	 77.315 	 28.315 	 -93.45 	
-1070 	 -563 	 -238 	 80.605 	 34.895 	 -89.005 	
-1075 	 -538 	 -226 	 84.035 	 42.595 	 -84.525 	
-1080 	 -518 	 -231 	 87.71 	 51.135 	 -80.22 	
-1094 	 -517 	 -240 	 91.035 	 59.815 	 -75.81 	
-1104 	 -551 	 -218 	 93.38 	 67.725 	 -71.225 	
-1116 	 -615 	 -195 	 95.585 	 73.15 	 -66.71 	
-1130 	 -630 	 -225 	 97.965 	 75.25 	 -62.545 	
-1168 	 -604 	 -278 	 100.45 	 73.71 	 -58.065 	
-1190 	 -630 	 -335 	 102.725 	 68.845 	 -52.745 	
-1192 	 -729 	 -417 	 104.965 	 61.88 	 -46.865 	
-1192 	 -909 	 -574 	 107.73 	 54.32 	 -40.53 	
-1169 	 -1190 	 -854 	 110.95 	 46.9 	 -33.215 	
-1134 	 -1613 	 -1270 	 115.08 	 40.88 	 -24.43 	
-1124 	 -2260 	 -1832 	 118.86 	 37.17 	 -13.65 	
-840 	 -3192 	 -2521 	 121.1 	 37.17 	 2.8 	
-148 	 -4037 	 -3271 	 122.92 	 47.145 	 24.01 	
534 	 -4399 	 -3854 	 118.3 	 77.07 	 39.41 	
808 	 -4225 	 -3969 	 102.55 	 132.23 	 50.61 	
673 	 -3826 	 -3655 	 78.89 	 198.24 	 69.615 	
326 	 -3502 	 -3463 	 43.295 	 238.49 	 90.44 	
-276 	 -3339 	 -3142 	 -11.48 	 218.61 	 103.95 	
-1484 	 -3198 	 -2182 	 -80.99 	 124.985 	 109.095 	
-1988 	 -2638 	 -2157 	 -153.93 	 -47.495 	 119.63 	
-1483 	 -1774 	 -2820 	 -234.01 	 -222.39 	 139.265 	
-382 	 -1585 	 -3291 	 -331.695 	 -343.28 	 153.895 	
314 	 -1227 	 -3570 	 -428.855 	 -385.91 	 158.69 	
-420 	 -589 	 -3245 	 -523.915 	 -361.935 	 154.945 	
-1285 	 -148 	 -2563 	 -616.14 	 -322.875 	 160.265 	
-1575 	 334 	 -1889 	 -703.15 	 -296.205 	 171.955 	
-1529 	 673 	 -822 	 -789.005 	 -287.595 	 175.245 	
-1794 	 1039 	 202 	 -860.405 	 -286.545 	 169.82 	
-1946 	 1392 	 620 	 -914.83 	 -278.005 	 171.5 	
-1191 	 1046 	 1486 	 -958.965 	 -242.27 	 184.205 	
-177 	 -35 	 2953 	 -971.25 	 -162.96 	 190.575 	
194 	 -853 	 3679 	 -939.365 	 -56.315 	 180.145 	
-101 	 -1432 	 3571 	 -884.8 	 48.965 	 158.795 	
-913 	 -2008 	 4405 	 -821.87 	 114.485 	 130.06 	
-1475 	 -2544 	 5922 	 -731.885 	 115.57 	 107.59 	
-1401 	 -2277 	 6175 	 -609.42 	 68.67 	 92.995 	
-1207 	 -1988 	 5885 	 -484.33 	 7.56 	 80.64 	
-1010 	 -1962 	 6214 	 -359.1 	 -33.355 	 70.21 	
-670 	 -1545 	 6105 	 -218.015 	 -42.14 	 62.265 	
-294 	 -1120 	 5876 	 -74.62 	 -18.13 	 52.325 	
-215 	 -842 	 5552 	 58.275 	 23.03 	 40.845 	
-335 	 -539 	 5321 	 177.38 	 66.045 	 32.725 	
-593 	 -464 	 5102 	 285.95 	 97.265 	 27.265 	
-859 	 -287 	 4421 	 380.8 	 108.045 	 22.645 	
-943 	 -37 	 3682 	 455.28 	 102.55 	 20.335 	
-814 	 111 	 3130 	 512.995 	 91.035 	 19.775 	
-589 	 362 	 2457 	 558.95 	 80.36 	 17.78 	
-409 	 637 	 1704 	 588.91 	 76.37 	 15.295 	
-259 	 778 	 1057 	 600.88 	 80.85 	 15.33 	
-88 	 745 	 573 	 598.85 	 90.615 	 17.22 	
-15 	 687 	 80 	 589.085 	 101.01 	 17.78 	
-130 	 572 	 -317 	 571.9 	 104.09 	 16.87 	
-366 	 300 	 -597 	 548.17 	 93.485 	 15.68 	
-599 	 57 	 -902 	 521.815 	 68.81 	 14.77 	
-618 	 -164 	 -1342 	 490.63 	 34.475 	 13.685 	
-511 	 -366 	 -1558 	 453.635 	 1.19 	 8.61 	
-458 	 -425 	 -1642 	 417.2 	 -23.38 	 -0.56 	
-503 	 -288 	 -1781 	 383.11 	 -35.385 	 -9.555 	
-548 	 -230 	 -1818 	 347.165 	 -38.605 	 -15.82 	
-584 	 -298 	 -1741 	 310.17 	 -39.025 	 -22.015 	
-722 	 -342 	 -1693 	 274.82 	 -41.895 	 -29.96 	
-915 	 -329 	 -1670 	 239.4 	 -50.54 	 -37.765 	
-1010 	 -369 	 -1555 	 204.435 	 -63.455 	 -42.98 	
-966 	 -419 	 -1449 	 172.76 	 -76.405 	 -47.495 	
-912 	 -436 	 -1394 	 144.375 	 -85.19 	 -53.375 	
-941 	 -434 	 -1328 	 118.685 	 -87.955 	 -59.64 	
-984 	 -440 	 -1220 	 96.145 	 -84.91 	 -63.875 	
-967 	 -479 	 -1148 	 77.07 	 -77.315 	 -66.675 	
-937 	 -523 	 -1080 	 61.04 	 -66.045 	 -70.0 	
-952 	 -540 	 -962 	 47.635 	 -51.905 	 -73.85 	
-983 	 -536 	 -806 	 37.695 	 -36.295 	 -76.79 	
-981 	 -517 	 -689 	 31.08 	 -20.51 	 -78.295 	
-963 	 -510 	 -594 	 26.495 	 -6.16 	 -79.45 	
-973 	 -518 	 -498 	 23.31 	 5.145 	 -81.095 	
-1020 	 -516 	 -387 	 21.84 	 12.705 	 -82.39 	
-1044 	 -513 	 -305 	 21.875 	 16.87 	 -82.67 	
-1033 	 -505 	 -243 	 22.715 	 18.795 	 -82.67 	
-1016 	 -493 	 -196 	 24.535 	 19.845 	 -82.775 	
-1012 	 -480 	 -160 	 27.09 	 20.79 	 -82.915 	
-999 	 -467 	 -138 	 30.205 	 22.505 	 -82.74 	
-978 	 -458 	 -113 	 33.74 	 25.095 	 -82.39 	
-946 	 -455 	 -108 	 37.835 	 28.245 	 -81.725 	
-944 	 -449 	 -76 	 41.79 	 31.745 	 -81.375 	
-938 	 -437 	 -46 	 46.305 	 34.895 	 -80.5 	
-933 	 -418 	 -30 	 51.03 	 37.52 	 -79.555 	
-929 	 -399 	 -23 	 55.65 	 39.48 	 -78.575 	
-926 	 -389 	 -25 	 60.2 	 40.95 	 -77.525 	
-922 	 -382 	 -20 	 64.855 	 41.86 	 -76.335 	
-918 	 -384 	 -15 	 69.44 	 42.35 	 -75.005 	
-922 	 -390 	 -1 	 73.955 	 42.175 	 -73.57 	
-936 	 -421 	 4 	 78.26 	 40.355 	 -71.995 	
-945 	 -469 	 -21 	 82.635 	 36.295 	 -69.895 	
-979 	 -544 	 -77 	 87.535 	 29.54 	 -67.935 	
-1101 	 -741 	 -216 	 93.17 	 19.67 	 -66.185 	
-1240 	 -1112 	 -511 	 100.03 	 5.88 	 -62.79 	
-1321 	 -1669 	 -1006 	 108.605 	 -10.815 	 -57.12 	
-1389 	 -2478 	 -1588 	 117.565 	 -28.525 	 -50.82 	
-1265 	 -3638 	 -2409 	 127.68 	 -43.75 	 -39.515 	
-686 	 -4900 	 -3530 	 138.565 	 -44.8 	 -21.595 	
170 	 -5842 	 -4261 	 138.39 	 -16.73 	 -7.28 	
688 	 -5804 	 -4229 	 125.37 	 52.605 	 -1.715 	
714 	 -4791 	 -4389 	 111.93 	 149.94 	 6.37 	
143 	 -3744 	 -4683 	 82.145 	 239.47 	 22.12 	
-1062 	 -3611 	 -3854 	 21.84 	 277.865 	 38.955 	
-1769 	 -3605 	 -2713 	 -46.13 	 221.585 	 57.435 	
-1922 	 -2946 	 -2546 	 -115.78 	 85.785 	 72.625 	
-1686 	 -2360 	 -3065 	 -207.97 	 -86.59 	 86.31 	
-1157 	 -1894 	 -3233 	 -318.78 	 -232.05 	 104.685 	
-483 	 -1660 	 -3404 	 -431.97 	 -317.66 	 126.63 	
-554 	 -1122 	 -3364 	 -544.67 	 -344.575 	 140.98 	
-1483 	 -460 	 -2763 	 -658.315 	 -348.355 	 151.655 	
-2551 	 239 	 -1892 	 -762.895 	 -352.555 	 172.97 	
-2673 	 871 	 -1265 	 -859.635 	 -364.07 	 205.065 	
-2441 	 1190 	 -429 	 -948.78 	 -369.495 	 229.81 	
-2501 	 1582 	 302 	 -1020.95 	 -358.47 	 243.88 	
-2516 	 1853 	 1030 	 -1075.34 	 -321.65 	 262.71 	
-1226 	 1184 	 2331 	 -1106.11 	 -244.335 	 298.025 	
762 	 -968 	 3843 	 -1092.91 	 -115.85 	 329.595 	
1643 	 -2336 	 4045 	 -1034.43 	 43.925 	 319.97 	
626 	 -2596 	 3986 	 -961.94 	 187.25 	 274.785 	
-860 	 -3148 	 5490 	 -880.81 	 255.36 	 238.105 	
-1505 	 -3381 	 6900 	 -757.015 	 234.43 	 220.15 	
-843 	 -2975 	 6896 	 -604.45 	 142.24 	 208.25 	
-295 	 -2280 	 5928 	 -455.805 	 66.64 	 191.66 	
-631 	 -2013 	 6906 	 -321.195 	 12.635 	 173.495 	
-184 	 -1825 	 7454 	 -157.605 	 -28.63 	 165.305 	
205 	 -1150 	 6614 	 10.815 	 -29.4 	 146.125 	
245 	 -991 	 6160 	 152.775 	 -5.145 	 127.89 	
491 	 -868 	 5858 	 275.45 	 27.755 	 110.81 	
368 	 -754 	 5309 	 387.24 	 59.045 	 87.815 	
-82 	 -509 	 4499 	 480.095 	 71.19 	 62.65 	
-424 	 -147 	 3810 	 550.725 	 61.565 	 43.96 	
-353 	 49 	 3272 	 606.165 	 37.345 	 31.255 	
68 	 203 	 2337 	 648.06 	 16.45 	 17.115 	
377 	 395 	 1270 	 669.2 	 15.155 	 -0.84 	
429 	 465 	 553 	 670.985 	 38.08 	 -17.36 	
387 	 387 	 0 	 664.79 	 78.855 	 -28.28 	
331 	 268 	 -711 	 652.925 	 124.635 	 -36.995 	
95 	 87 	 -1202 	 629.09 	 163.065 	 -45.255 	
-199 	 -122 	 -1257 	 596.12 	 180.67 	 -50.085 	
-394 	 -237 	 -1379 	 563.185 	 170.1 	 -50.995 	
-497 	 -231 	 -1557 	 527.205 	 136.78 	 -51.94 	
-582 	 -298 	 -1528 	 486.325 	 89.6 	 -53.76 	
-592 	 -308 	 -1542 	 446.32 	 41.405 	 -55.335 	
-536 	 -251 	 -1740 	 406.84 	 1.4 	 -56.84 	
-460 	 -274 	 -1864 	 363.93 	 -25.795 	 -59.185 	
-487 	 -343 	 -1940 	 321.23 	 -40.425 	 -63.245 	
-588 	 -323 	 -2033 	 279.335 	 -46.165 	 -67.865 	
-718 	 -265 	 -1919 	 237.405 	 -45.675 	 -71.54 	
-807 	 -239 	 -1678 	 200.165 	 -40.81 	 -73.605 	
-805 	 -207 	 -1607 	 169.26 	 -33.215 	 -75.075 	
-817 	 -210 	 -1605 	 140.0 	 -24.395 	 -77.42 	
-896 	 -285 	 -1488 	 112.14 	 -15.4 	 -79.8 	
-967 	 -339 	 -1333 	 88.935 	 -6.755 	 -80.5 	
-953 	 -363 	 -1225 	 70.35 	 1.82 	 -79.975 	
-911 	 -401 	 -1123 	 55.09 	 10.78 	 -80.185 	
-922 	 -425 	 -983 	 43.015 	 20.3 	 -80.92 	
-993 	 -411 	 -864 	 34.51 	 28.945 	 -80.71 	
-1039 	 -419 	 -769 	 28.105 	 34.58 	 -78.225 	
-1008 	 -483 	 -650 	 22.82 	 35.63 	 -74.62 	
-997 	 -529 	 -511 	 19.705 	 32.13 	 -72.625 	
-1084 	 -516 	 -429 	 18.76 	 24.36 	 -71.4 	
-1169 	 -473 	 -383 	 18.2 	 14.07 	 -68.075 	
-1153 	 -443 	 -310 	 18.025 	 3.185 	 -63.245 	
-1104 	 -432 	 -269 	 19.32 	 -5.985 	 -59.115 	
-1098 	 -414 	 -284 	 21.315 	 -12.04 	 -56.21 	
-1090 	 -395 	 -302 	 23.1 	 -14.175 	 -52.85 	
-1056 	 -394 	 -284 	 25.095 	 -12.46 	 -48.965 	
-1037 	 -384 	 -264 	 28.07 	 -7.21 	 -45.71 	
-1048 	 -355 	 -256 	 31.71 	 0.7 	 -42.875 	
-1048 	 -341 	 -264 	 35.42 	 10.01 	 -39.935 	
-1026 	 -348 	 -268 	 39.48 	 20.16 	 -36.925 	
-1010 	 -357 	 -257 	 43.785 	 30.555 	 -34.23 	
-1018 	 -363 	 -244 	 48.405 	 40.495 	 -31.71 	
-1020 	 -362 	 -243 	 53.06 	 49.105 	 -29.05 	
-1006 	 -357 	 -226 	 58.1 	 55.545 	 -26.11 	
-1014 	 -344 	 -194 	 63.28 	 60.34 	 -23.625 	
-1025 	 -336 	 -179 	 68.285 	 62.965 	 -21.455 	
-1033 	 -326 	 -169 	 73.01 	 63.805 	 -19.11 	
-1038 	 -338 	 -155 	 77.63 	 62.72 	 -16.8 	
-1041 	 -364 	 -157 	 81.9 	 59.57 	 -15.015 	
-1056 	 -372 	 -187 	 86.065 	 54.285 	 -13.475 	
-1086 	 -404 	 -252 	 90.685 	 47.11 	 -12.25 	
-1153 	 -509 	 -372 	 95.34 	 39.2 	 -11.305 	
-1231 	 -737 	 -560 	 100.17 	 30.695 	 -10.185 	
-1273 	 -1116 	 -876 	 105.91 	 22.54 	 -7.84 	
-1282 	 -1690 	 -1434 	 113.05 	 16.275 	 -4.9 	
-1251 	 -2484 	 -2224 	 119.77 	 15.4 	 -1.47 	
-1029 	 -3553 	 -2970 	 123.2 	 27.23 	 7.07 	
-212 	 -4578 	 -3618 	 124.915 	 58.45 	 23.66 	
961 	 -4922 	 -4268 	 122.325 	 113.12 	 39.41 	
1334 	 -4694 	 -4651 	 107.59 	 185.675 	 42.665 	
228 	 -4502 	 -4389 	 77.49 	 244.755 	 44.17 	
-1090 	 -4172 	 -3963 	 32.48 	 243.145 	 57.61 	
-1743 	 -3590 	 -3556 	 -27.475 	 167.16 	 76.09 	
-1976 	 -2964 	 -2983 	 -104.265 	 33.355 	 84.28 	
-1834 	 -2077 	 -3200 	 -186.025 	 -108.78 	 90.3 	
-1012 	 -1328 	 -3958 	 -280.42 	 -208.95 	 104.86 	
-231 	 -1057 	 -4310 	 -389.97 	 -239.715 	 116.06 	
-334 	 -762 	 -4017 	 -500.535 	 -221.795 	 117.635 	
-1105 	 -208 	 -3502 	 -608.335 	 -204.96 	 122.57 	
-1882 	 205 	 -2650 	 -715.82 	 -220.815 	 139.615 	
-2271 	 507 	 -1633 	 -815.325 	 -269.29 	 164.99 	
-2152 	 704 	 -1120 	 -901.705 	 -331.03 	 193.27 	
-1959 	 727 	 -814 	 -976.255 	 -374.22 	 223.02 	
-1776 	 475 	 -403 	 -1035.93 	 -378.0 	 257.845 	
-1283 	 71 	 379 	 -1073.03 	 -333.375 	 299.95 	
-162 	 -858 	 1665 	 -1080.21 	 -242.095 	 340.27 	
410 	 -1904 	 3088 	 -1052.91 	 -120.05 	 359.695 	
64 	 -2314 	 3901 	 -995.12 	 -5.95 	 360.5 	
-648 	 -2577 	 4645 	 -920.36 	 57.015 	 354.97 	
-1431 	 -2995 	 5678 	 -826.245 	 43.33 	 348.775 	
-1616 	 -3048 	 6486 	 -707.0 	 -42.385 	 346.045 	
-1024 	 -2535 	 6402 	 -571.97 	 -149.03 	 347.27 	
-413 	 -2272 	 6509 	 -432.145 	 -233.59 	 342.475 	
299 	 -2111 	 6684 	 -282.835 	 -279.615 	 328.685 	
1059 	 -1728 	 6193 	 -126.56 	 -272.195 	 303.59 	
1572 	 -1531 	 5765 	 17.955 	 -215.495 	 267.855 	
1755 	 -1311 	 5640 	 147.805 	 -134.19 	 223.055 	
1558 	 -1088 	 5323 	 267.47 	 -53.62 	 174.475 	
1289 	 -850 	 4539 	 370.37 	 6.16 	 127.47 	
1078 	 -580 	 3836 	 450.24 	 40.39 	 81.235 	
837 	 -358 	 3430 	 514.675 	 50.68 	 35.315 	
723 	 -100 	 2703 	 569.17 	 48.895 	 -7.14 	
850 	 135 	 1711 	 604.38 	 46.55 	 -45.815 	
970 	 205 	 987 	 617.715 	 51.275 	 -84.945 	
871 	 264 	 357 	 619.78 	 67.48 	 -124.565 	
638 	 296 	 -350 	 614.53 	 91.945 	 -159.04 	
489 	 292 	 -964 	 597.1 	 117.005 	 -186.2 	
388 	 241 	 -1202 	 569.59 	 134.295 	 -208.985 	
178 	 223 	 -1209 	 539.805 	 137.445 	 -228.655 	
-130 	 201 	 -1300 	 510.3 	 123.445 	 -243.95 	
-354 	 239 	 -1527 	 477.33 	 97.44 	 -251.685 	
-344 	 184 	 -1649 	 438.585 	 67.795 	 -254.485 	
-274 	 73 	 -1704 	 400.19 	 42.14 	 -256.655 	
-289 	 15 	 -2017 	 363.335 	 25.305 	 -258.44 	
-374 	 0 	 -2282 	 322.77 	 21.21 	 -257.705 	
-461 	 -28 	 -2172 	 281.26 	 28.805 	 -253.26 	
-462 	 -19 	 -2005 	 245.63 	 43.89 	 -245.35 	
-490 	 2 	 -1888 	 215.215 	 59.29 	 -237.685 	
-751 	 14 	 -1704 	 186.655 	 67.48 	 -231.105 	
-1106 	 12 	 -1488 	 160.58 	 63.315 	 -221.305 	
-1242 	 -84 	 -1421 	 137.725 	 46.725 	 -206.99 	
-1139 	 -297 	 -1455 	 116.655 	 23.415 	 -192.78 	
-1033 	 -486 	 -1448 	 97.58 	 0.805 	 -182.49 	
-1115 	 -556 	 -1361 	 82.705 	 -16.625 	 -174.51 	
-1242 	 -532 	 -1304 	 71.54 	 -27.825 	 -164.29 	
-1242 	 -520 	 -1246 	 62.405 	 -33.04 	 -151.445 	
-1191 	 -547 	 -1131 	 54.67 	 -34.125 	 -140.315 	
-1234 	 -518 	 -996 	 49.805 	 -33.81 	 -130.795 	
-1330 	 -462 	 -879 	 46.725 	 -34.545 	 -120.54 	
-1362 	 -411 	 -779 	 44.52 	 -37.345 	 -109.2 	
-1358 	 -368 	 -653 	 43.225 	 -41.79 	 -98.28 	
-1366 	 -320 	 -540 	 43.365 	 -46.095 	 -88.34 	
-1353 	 -267 	 -500 	 44.975 	 -49.315 	 -78.61 	
-1306 	 -229 	 -496 	 46.69 	 -49.77 	 -69.09 	
-1265 	 -214 	 -456 	 48.72 	 -46.97 	 -59.85 	
-1255 	 -203 	 -378 	 51.45 	 -41.195 	 -51.415 	
-1242 	 -157 	 -319 	 55.02 	 -33.705 	 -43.785 	
-1224 	 -91 	 -269 	 58.905 	 -24.745 	 -36.645 	
-1199 	 -43 	 -218 	 62.86 	 -15.19 	 -30.24 	
-1188 	 -8 	 -165 	 67.06 	 -5.075 	 -24.605 	
-1159 	 20 	 -137 	 71.47 	 5.075 	 -19.11 	
-1127 	 54 	 -122 	 75.46 	 14.42 	 -14.14 	
-1104 	 80 	 -85 	 79.17 	 21.945 	 -10.01 	
-1113 	 99 	 -35 	 82.915 	 27.23 	 -6.475 	
-1131 	 125 	 3 	 86.8 	 29.89 	 -3.08 	
-1141 	 160 	 33 	 90.44 	 30.24 	 -0.14 	
-1146 	 192 	 51 	 94.045 	 28.98 	 1.96 	
-1141 	 195 	 30 	 97.72 	 26.95 	 3.78 	
-1129 	 172 	 5 	 101.08 	 24.815 	 5.075 	
-1105 	 135 	 -5 	 104.3 	 23.275 	 5.81 	
-1086 	 115 	 -12 	 107.94 	 22.89 	 5.985 	
-1070 	 103 	 -44 	 111.79 	 24.15 	 5.6 	
-1067 	 81 	 -96 	 115.745 	 27.02 	 4.69 	
-1109 	 -30 	 -200 	 119.945 	 31.29 	 3.29 	
-1152 	 -220 	 -360 	 124.775 	 36.61 	 1.89 	
-1112 	 -421 	 -562 	 130.445 	 42.245 	 1.19 	
-1098 	 -678 	 -796 	 137.445 	 48.86 	 -0.315 	
-1203 	 -1125 	 -1137 	 146.3 	 55.335 	 -2.905 	
-1396 	 -1954 	 -1806 	 156.905 	 61.25 	 -3.745 	
-1290 	 -3090 	 -2603 	 166.145 	 70.105 	 4.025 	
-405 	 -4268 	 -3355 	 172.13 	 87.395 	 20.405 	
683 	 -4982 	 -3695 	 173.565 	 124.81 	 31.605 	
1088 	 -4878 	 -3937 	 166.6 	 179.55 	 33.88 	
669 	 -4169 	 -4445 	 151.48 	 229.215 	 41.055 	
-503 	 -3657 	 -4222 	 114.1 	 241.255 	 54.39 	
-1562 	 -3403 	 -3354 	 50.365 	 185.395 	 68.285 	
-2224 	 -2628 	 -2666 	 -19.88 	 66.43 	 79.065 	
-2366 	 -1516 	 -2991 	 -94.36 	 -84.21 	 85.645 	
-1890 	 -634 	 -3846 	 -188.195 	 -209.195 	 97.335 	
-984 	 -89 	 -4367 	 -299.285 	 -264.25 	 112.0 	
-686 	 374 	 -4240 	 -415.695 	 -249.48 	 117.145 	
-1495 	 813 	 -3485 	 -528.85 	 -210.875 	 118.125 	
-2644 	 1289 	 -2941 	 -632.415 	 -197.435 	 131.985 	
-2989 	 1392 	 -2797 	 -733.565 	 -224.21 	 163.8 	
-2426 	 1004 	 -2520 	 -834.82 	 -277.55 	 201.04 	
-1910 	 502 	 -1872 	 -922.46 	 -330.75 	 234.605 	
-1957 	 250 	 -1072 	 -983.92 	 -364.105 	 271.67 	
-2188 	 74 	 -343 	 -1019.24 	 -371.455 	 322.595 	
-1784 	 -402 	 305 	 -1028.48 	 -349.125 	 388.955 	
-532 	 -1603 	 1251 	 -1012.13 	 -294.595 	 454.3 	
223 	 -2501 	 2505 	 -968.87 	 -215.915 	 489.055 	
-473 	 -2450 	 3425 	 -895.825 	 -134.4 	 498.925 	
-1051 	 -2187 	 4059 	 -806.785 	 -86.975 	 515.9 	
-878 	 -2759 	 4976 	 -705.425 	 -84.14 	 532.385 	
-544 	 -2676 	 5803 	 -588.49 	 -115.57 	 527.625 	
-296 	 -2238 	 6162 	 -460.53 	 -162.12 	 512.155 	
-138 	 -2069 	 6476 	 -327.005 	 -213.185 	 493.955 	
375 	 -1994 	 6485 	 -190.61 	 -259.735 	 469.385 	
1065 	 -1749 	 6010 	 -57.505 	 -284.69 	 428.54 	
1512 	 -1479 	 5577 	 66.815 	 -274.015 	 373.275 	
2127 	 -1240 	 4845 	 183.26 	 -227.43 	 309.26 	
2596 	 -997 	 3778 	 284.9 	 -149.765 	 234.465 	
2400 	 -749 	 2989 	 365.715 	 -58.765 	 150.92 	
1753 	 -442 	 2515 	 430.92 	 18.34 	 71.295 	
1306 	 -219 	 2047 	 483.42 	 64.05 	 4.41 	
1372 	 -156 	 1479 	 520.73 	 77.455 	 -56.315 	
1541 	 -141 	 907 	 542.745 	 75.74 	 -121.065 	
1413 	 -2 	 329 	 553.63 	 80.885 	 -184.415 	
1340 	 72 	 -334 	 553.77 	 100.87 	 -235.76 	
1477 	 43 	 -853 	 540.855 	 132.965 	 -277.375 	
1420 	 0 	 -1025 	 518.805 	 165.445 	 -316.715 	
961 	 74 	 -985 	 495.11 	 185.395 	 -350.875 	
585 	 203 	 -1075 	 468.51 	 182.42 	 -371.7 	
562 	 230 	 -1141 	 433.51 	 158.165 	 -380.94 	
579 	 133 	 -1020 	 395.045 	 121.975 	 -388.605 	
328 	 241 	 -1016 	 357.805 	 82.11 	 -395.185 	
57 	 273 	 -1134 	 319.48 	 43.68 	 -394.31 	
-26 	 155 	 -1297 	 279.37 	 11.62 	 -387.695 	
-111 	 29 	 -1413 	 239.855 	 -10.29 	 -381.535 	
-305 	 -55 	 -1415 	 203.28 	 -22.05 	 -375.06 	
