STEVAL-MKI197V1 (LSM6DSOX)

A_X [mg] 	 A_Y [mg] 	 A_Z [mg] 	G_X [dps] 	 G_Y [dps] 	 G_Z [dps] 	
-211 	 -903 	 -592 	22.61 	 -29.26 	 -9.555 	
-219 	 -883 	 -583 	22.19 	 -30.695 	 -16.065 	
-211 	 -846 	 -571 	21.595 	 -32.235 	 -19.95 	
-197 	 -829 	 -563 	20.58 	 -33.495 	 -19.705 	
-184 	 -796 	 -552 	19.495 	 -34.615 	 -15.82 	
-169 	 -783 	 -538 	17.92 	 -35.455 	 -10.08 	
-173 	 -762 	 -523 	16.135 	 -35.91 	 -4.13 	
-175 	 -746 	 -501 	14.105 	 -36.225 	 1.75 	
-187 	 -750 	 -469 	11.9 	 -36.365 	 6.51 	
-184 	 -762 	 -445 	9.59 	 -36.4 	 8.785 	
-189 	 -750 	 -425 	7.315 	 -36.225 	 7.665 	
-218 	 -744 	 -417 	4.655 	 -35.805 	 3.605 	
-220 	 -755 	 -426 	1.75 	 -35.49 	 -2.31 	
-217 	 -772 	 -425 	-1.085 	 -34.965 	 -9.065 	
-200 	 -768 	 -422 	-4.025 	 -34.475 	 -15.645 	
-179 	 -749 	 -411 	-7.21 	 -33.53 	 -21.385 	
-195 	 -788 	 -377 	-10.815 	 -32.585 	 -26.635 	
-177 	 -775 	 -370 	-14.035 	 -31.78 	 -31.92 	
-234 	 -785 	 -349 	-17.71 	 -30.45 	 -37.415 	
-237 	 -770 	 -355 	-21.35 	 -29.89 	 -45.395 	
-266 	 -771 	 -347 	-25.27 	 -28.56 	 -58.415 	
-241 	 -814 	 -335 	-29.225 	 -28 	 -76.615 	
-244 	 -666 	 -340 	-33.04 	 -26.95 	 -93.835 	
-224 	 -674 	 -366 	-38.71 	 -26.53 	 -100.59 	
-216 	 -554 	 -394 	-42.7 	 -26.215 	 -92.295 	
-201 	 -588 	 -373 	-48.825 	 -26.495 	 -69.51 	
-224 	 -539 	 -380 	-53.83 	 -26.67 	 -37.205 	
-256 	 -578 	 -380 	-59.815 	 -27.02 	 -1.855 	
-283 	 -611 	 -388 	-65.03 	 -27.23 	 28.665 	
-294 	 -726 	 -383 	-70.35 	 -26.775 	 47.285 	
-220 	 -790 	 -424 	-74.725 	 -25.76 	 50.61 	
-124 	 -827 	 -467 	-78.96 	 -23.1 	 41.335 	
-75 	 -773 	 -493 	-82.845 	 -19.705 	 26.845 	
-79 	 -569 	 -542 	-87.71 	 -15.435 	 16.1 	
-171 	 -526 	 -566 	-94.185 	 -11.865 	 16.765 	
-203 	 -478 	 -595 	-101.185 	 -9.275 	 30.275 	
-287 	 -476 	 -590 	-107.8 	 -6.23 	 54.25 	
-250 	 -582 	 -619 	-114.345 	 -4.165 	 81.41 	
-221 	 -670 	 -654 	-119.245 	 -0.35 	 101.29 	
-177 	 -772 	 -687 	-122.57 	 4.235 	 107.52 	
-199 	 -852 	 -677 	-123.9 	 9.87 	 101.465 	
-199 	 -887 	 -663 	-123.69 	 14.35 	 87.185 	
-260 	 -792 	 -650 	-121.45 	 19.145 	 69.09 	
-293 	 -737 	 -616 	-119.175 	 21.35 	 54.11 	
-331 	 -701 	 -582 	-115.325 	 22.96 	 46.76 	
-322 	 -749 	 -523 	-110.74 	 23.38 	 46.13 	
-298 	 -758 	 -560 	-104.37 	 23.345 	 48.685 	
-266 	 -757 	 -603 	-96.95 	 23.17 	 50.925 	
-315 	 -752 	 -599 	-89.11 	 23.905 	 51.275 	
-297 	 -752 	 -646 	-81.34 	 22.855 	 48.3 	
-304 	 -715 	 -713 	-73.745 	 22.645 	 39.48 	
-318 	 -688 	 -726 	-66.745 	 22.47 	 26.11 	
-300 	 -638 	 -732 	-61.005 	 21.84 	 11.725 	
-295 	 -610 	 -750 	-56.14 	 21.42 	 -0.875 	
-273 	 -583 	 -779 	-52.605 	 21.49 	 -10.36 	
-245 	 -462 	 -809 	-49.35 	 21.07 	 -16.415 	
-246 	 -447 	 -826 	-48.23 	 21.315 	 -16.345 	
-263 	 -400 	 -843 	-47.215 	 21.07 	 -8.365 	
-275 	 -394 	 -850 	-46.97 	 20.825 	 5.81 	
-266 	 -401 	 -841 	-46.585 	 20.37 	 20.895 	
-233 	 -448 	 -834 	-46.62 	 20.44 	 31.15 	
-206 	 -475 	 -852 	-46.445 	 20.965 	 33.25 	
-207 	 -485 	 -884 	-46.27 	 21.945 	 28.525 	
-241 	 -468 	 -908 	-46.13 	 22.96 	 21 	
-274 	 -421 	 -932 	-46.095 	 23.38 	 14.84 	
-315 	 -386 	 -957 	-45.64 	 22.96 	 13.58 	
-323 	 -411 	 -944 	-45.01 	 22.05 	 17.395 	
-305 	 -458 	 -933 	-43.505 	 20.58 	 21.98 	
-298 	 -485 	 -936 	-40.81 	 19.005 	 25.48 	
-314 	 -495 	 -944 	-37.345 	 17.43 	 28.665 	
-319 	 -503 	 -946 	-33.32 	 15.61 	 30.59 	
-324 	 -493 	 -968 	-29.33 	 13.685 	 29.75 	
-335 	 -485 	 -996 	-24.99 	 11.725 	 25.62 	
-333 	 -511 	 -999 	-20.615 	 9.835 	 18.97 	
-304 	 -521 	 -996 	-16.065 	 7.805 	 10.255 	
-291 	 -519 	 -1003 	-11.235 	 6.125 	 0.7 	
-285 	 -494 	 -1010 	-6.23 	 4.515 	 -6.335 	
-284 	 -477 	 -1009 	-1.365 	 2.87 	 -7.91 	
-256 	 -445 	 -1018 	3.43 	 1.05 	 -4.48 	
-237 	 -433 	 -1024 	7.805 	 -0.35 	 1.925 	
-233 	 -418 	 -1024 	11.97 	 -1.75 	 9.73 	
-261 	 -429 	 -1018 	15.68 	 -2.94 	 17.64 	
-269 	 -454 	 -1017 	18.935 	 -4.235 	 22.715 	
-261 	 -474 	 -1017 	21.91 	 -5.285 	 21.14 	
-246 	 -480 	 -1028 	24.5 	 -6.055 	 12.18 	
-239 	 -474 	 -1023 	26.74 	 -6.37 	 -0.665 	
-247 	 -443 	 -1005 	28.35 	 -6.44 	 -12.075 	
-257 	 -424 	 -996 	29.33 	 -6.86 	 -17.78 	
-267 	 -400 	 -987 	30.1 	 -7.42 	 -17.22 	
-266 	 -398 	 -972 	30.45 	 -8.19 	 -13.09 	
-261 	 -408 	 -957 	30.73 	 -9.03 	 -8.47 	
-262 	 -421 	 -942 	30.905 	 -9.8 	 -5.005 	
-267 	 -440 	 -931 	31.29 	 -10.57 	 -3.22 	
-273 	 -465 	 -910 	31.815 	 -11.34 	 -3.29 	
-273 	 -478 	 -895 	32.445 	 -12.04 	 -5.67 	
-278 	 -484 	 -885 	33.32 	 -12.845 	 -9.66 	
-290 	 -484 	 -880 	34.16 	 -13.58 	 -13.86 	
-296 	 -482 	 -877 	35.245 	 -14.63 	 -17.01 	
-296 	 -492 	 -864 	36.435 	 -15.68 	 -18.865 	
-286 	 -504 	 -866 	37.59 	 -16.8 	 -19.915 	
-284 	 -490 	 -864 	39.2 	 -17.815 	 -20.58 	
-277 	 -498 	 -854 	40.6 	 -18.795 	 -20.335 	
-278 	 -485 	 -862 	42.21 	 -19.67 	 -18.865 	
-274 	 -480 	 -862 	43.855 	 -20.51 	 -15.995 	
-269 	 -498 	 -863 	45.5 	 -21.28 	 -12.46 	
-264 	 -502 	 -868 	47.495 	 -21.98 	 -9.205 	
-275 	 -523 	 -868 	49.595 	 -22.54 	 -6.405 	
-291 	 -545 	 -870 	51.94 	 -23.205 	 -4.095 	
-296 	 -548 	 -882 	54.6 	 -23.94 	 -3.71 	
-303 	 -579 	 -892 	57.295 	 -24.395 	 -6.65 	
-298 	 -607 	 -878 	60.41 	 -24.78 	 -13.055 	
-290 	 -629 	 -867 	63.42 	 -24.78 	 -21.455 	
-284 	 -637 	 -861 	66.57 	 -24.5 	 -29.155 	
-271 	 -599 	 -842 	69.79 	 -24.08 	 -33.74 	
-273 	 -606 	 -825 	72.17 	 -23.415 	 -33.88 	
-263 	 -602 	 -808 	74.305 	 -22.89 	 -29.785 	
-254 	 -613 	 -787 	75.915 	 -22.085 	 -23.555 	
-255 	 -627 	 -764 	76.86 	 -21.175 	 -17.675 	
-259 	 -646 	 -744 	77.21 	 -20.195 	 -14.245 	
-243 	 -660 	 -712 	76.79 	 -18.795 	 -14.98 	
-233 	 -681 	 -701 	75.67 	 -17.045 	 -20.16 	
-213 	 -679 	 -679 	74.06 	 -14.98 	 -28.77 	
-198 	 -692 	 -659 	71.54 	 -12.32 	 -37.38 	
-198 	 -662 	 -626 	68.565 	 -9.695 	 -41.79 	
-196 	 -652 	 -608 	64.645 	 -7.35 	 -39.445 	
-200 	 -628 	 -584 	60.41 	 -5.18 	 -31.255 	
-198 	 -628 	 -569 	55.195 	 -3.36 	 -19.845 	
-198 	 -625 	 -562 	49.77 	 -1.75 	 -9.065 	
-205 	 -634 	 -556 	44.1 	 -0.175 	 -1.75 	
-216 	 -672 	 -535 	38.605 	 1.155 	 0.805 	
-221 	 -719 	 -517 	33.39 	 2.345 	 -1.61 	
-222 	 -752 	 -510 	29.05 	 3.29 	 -7.945 	
-225 	 -757 	 -501 	25.34 	 4.165 	 -15.12 	
-225 	 -753 	 -500 	21.945 	 4.55 	 -19.215 	
-221 	 -730 	 -502 	19.005 	 4.515 	 -18.025 	
-221 	 -712 	 -501 	16.205 	 4.165 	 -12.18 	
-216 	 -717 	 -498 	13.3 	 3.71 	 -4.41 	
-217 	 -721 	 -502 	10.71 	 3.08 	 2.205 	
-226 	 -743 	 -506 	8.155 	 2.38 	 5.39 	
-237 	 -759 	 -509 	6.02 	 1.645 	 4.655 	
-245 	 -773 	 -510 	3.955 	 0.91 	 0.875 	
-247 	 -770 	 -521 	2.135 	 -0.035 	 -4.06 	
-244 	 -753 	 -537 	0.35 	 -1.085 	 -8.33 	
-243 	 -730 	 -547 	-1.365 	 -2.24 	 -10.535 	
-243 	 -718 	 -555 	-3.22 	 -3.43 	 -9.94 	
-240 	 -712 	 -560 	-4.935 	 -4.62 	 -7.35 	
-235 	 -732 	 -559 	-6.3 	 -5.775 	 -4.865 	
-221 	 -760 	 -556 	-7.28 	 -6.79 	 -4.025 	
-217 	 -776 	 -557 	-7.665 	 -7.63 	 -4.97 	
-217 	 -770 	 -563 	-7.7 	 -8.365 	 -6.265 	
-222 	 -768 	 -570 	-7.49 	 -9.1 	 -6.37 	
-217 	 -762 	 -580 	-7.245 	 -9.835 	 -4.865 	
-219 	 -750 	 -594 	-7.07 	 -10.465 	 -2.135 	
-219 	 -747 	 -600 	-7.035 	 -10.955 	 0.735 	
-212 	 -752 	 -603 	-7.105 	 -11.34 	 2.205 	
-212 	 -758 	 -606 	-6.965 	 -11.41 	 1.61 	
-211 	 -778 	 -601 	-6.93 	 -11.41 	 -0.665 	
-217 	 -773 	 -603 	-6.615 	 -11.235 	 -3.36 	
-229 	 -762 	 -606 	-6.195 	 -11.13 	 -5.04 	
-235 	 -745 	 -608 	-5.915 	 -11.235 	 -4.41 	
-238 	 -733 	 -609 	-5.81 	 -11.235 	 -1.295 	
-239 	 -735 	 -611 	-5.775 	 -11.27 	 3.01 	
-234 	 -737 	 -616 	-5.81 	 -11.235 	 6.265 	
-235 	 -750 	 -615 	-5.81 	 -10.955 	 6.895 	
-223 	 -770 	 -611 	-5.775 	 -10.57 	 4.935 	
-225 	 -778 	 -608 	-5.46 	 -9.87 	 1.855 	
-226 	 -777 	 -600 	-5.075 	 -9.275 	 -0.56 	
-235 	 -770 	 -602 	-4.515 	 -8.715 	 -1.085 	
-235 	 -765 	 -606 	-4.165 	 -8.225 	 -0.07 	
-235 	 -755 	 -612 	-3.955 	 -7.735 	 1.085 	
-245 	 -741 	 -618 	-4.06 	 -7.175 	 2.065 	
-255 	 -725 	 -622 	-4.27 	 -6.755 	 2.975 	
-268 	 -725 	 -626 	-4.76 	 -6.335 	 3.675 	
-273 	 -731 	 -626 	-5.04 	 -6.125 	 3.57 	
-276 	 -745 	 -621 	-5.355 	 -5.915 	 2.905 	
-279 	 -742 	 -622 	-5.46 	 -5.845 	 2.45 	
-282 	 -736 	 -625 	-5.425 	 -5.845 	 2.8 	
-283 	 -736 	 -627 	-5.46 	 -5.81 	 3.71 	
-278 	 -727 	 -629 	-5.53 	 -5.88 	 4.34 	
-279 	 -722 	 -631 	-5.67 	 -5.88 	 4.235 	
-283 	 -720 	 -632 	-5.915 	 -5.845 	 3.535 	
-279 	 -726 	 -633 	-5.915 	 -5.81 	 2.24 	
-273 	 -748 	 -626 	-5.81 	 -5.74 	 0.42 	
-268 	 -748 	 -623 	-5.39 	 -5.705 	 -1.33 	
-269 	 -741 	 -620 	-4.69 	 -5.635 	 -1.855 	
-269 	 -737 	 -619 	-3.955 	 -5.635 	 -1.015 	
-266 	 -733 	 -620 	-3.22 	 -5.705 	 0.875 	
-269 	 -732 	 -621 	-2.59 	 -5.705 	 2.905 	
-271 	 -730 	 -626 	-2.1 	 -5.775 	 4.2 	
-279 	 -729 	 -633 	-1.575 	 -5.81 	 4.27 	
-280 	 -739 	 -633 	-1.015 	 -6.02 	 2.87 	
-281 	 -750 	 -630 	-0.525 	 -6.055 	 0.525 	
-283 	 -753 	 -630 	0.14 	 -6.265 	 -1.89 	
-281 	 -747 	 -631 	0.84 	 -6.44 	 -3.29 	
-280 	 -745 	 -637 	1.435 	 -6.65 	 -2.835 	
-282 	 -723 	 -643 	1.855 	 -6.79 	 -0.7 	
-289 	 -716 	 -646 	1.995 	 -6.93 	 2.135 	
-289 	 -716 	 -646 	1.855 	 -7.105 	 4.305 	
-289 	 -729 	 -642 	1.645 	 -7.105 	 4.48 	
-291 	 -740 	 -636 	1.54 	 -7.035 	 2.38 	
-293 	 -751 	 -626 	1.435 	 -7 	 -0.875 	
-291 	 -754 	 -625 	1.47 	 -7.035 	 -4.235 	
-287 	 -742 	 -624 	1.61 	 -6.93 	 -6.265 	
-285 	 -730 	 -630 	1.575 	 -6.93 	 -6.055 	
-279 	 -725 	 -636 	1.47 	 -6.895 	 -3.955 	
-283 	 -726 	 -638 	1.155 	 -6.685 	 -1.26 	
-281 	 -721 	 -640 	0.805 	 -6.51 	 0.875 	
-287 	 -729 	 -636 	0.455 	 -6.3 	 1.61 	
-287 	 -731 	 -630 	0.21 	 -6.09 	 0.805 	
-294 	 -740 	 -622 	0.035 	 -5.95 	 -0.875 	
-295 	 -744 	 -619 	0.21 	 -5.985 	 -2.485 	
-293 	 -747 	 -621 	0.595 	 -6.055 	 -3.815 	
-290 	 -750 	 -621 	1.155 	 -6.125 	 -4.62 	
-285 	 -751 	 -621 	1.855 	 -6.335 	 -4.41 	
-280 	 -743 	 -625 	2.695 	 -6.475 	 -2.975 	
-285 	 -732 	 -630 	3.5 	 -6.65 	 -0.735 	
-280 	 -737 	 -631 	4.305 	 -6.86 	 1.085 	
-282 	 -746 	 -629 	4.9 	 -6.895 	 1.19 	
-281 	 -748 	 -631 	5.705 	 -7.035 	 -0.84 	
-285 	 -755 	 -630 	6.545 	 -7.14 	 -3.885 	
-284 	 -755 	 -629 	7.595 	 -7.35 	 -6.615 	
-282 	 -761 	 -626 	8.61 	 -7.63 	 -8.085 	
-279 	 -755 	 -625 	9.73 	 -7.945 	 -7.595 	
-281 	 -739 	 -632 	10.64 	 -8.19 	 -5.04 	
-276 	 -728 	 -635 	11.48 	 -8.54 	 -1.4 	
-265 	 -739 	 -638 	11.83 	 -8.715 	 1.61 	
-257 	 -741 	 -638 	12.32 	 -8.715 	 2.345 	
-257 	 -762 	 -636 	12.565 	 -8.435 	 0.805 	
-254 	 -771 	 -634 	13.02 	 -8.225 	 -1.925 	
-256 	 -780 	 -631 	13.545 	 -7.875 	 -4.48 	
-254 	 -768 	 -629 	14.245 	 -7.7 	 -5.635 	
-253 	 -759 	 -634 	14.735 	 -7.56 	 -4.97 	
-255 	 -755 	 -634 	15.435 	 -7.595 	 -3.15 	
-252 	 -776 	 -629 	15.995 	 -7.595 	 -1.33 	
-247 	 -780 	 -630 	16.905 	 -7.7 	 -0.21 	
-252 	 -784 	 -629 	17.885 	 -7.77 	 0.42 	
-254 	 -795 	 -634 	19.005 	 -8.085 	 1.12 	
-251 	 -803 	 -641 	20.125 	 -8.4 	 1.75 	
-253 	 -814 	 -649 	21.525 	 -8.89 	 2.24 	
-264 	 -822 	 -655 	23.065 	 -9.45 	 3.01 	
-274 	 -829 	 -662 	24.85 	 -10.255 	 4.06 	
-278 	 -862 	 -662 	26.915 	 -11.13 	 4.41 	
-283 	 -897 	 -655 	29.365 	 -12.005 	 3.465 	
-282 	 -904 	 -660 	32.655 	 -13.23 	 1.785 	
-283 	 -907 	 -671 	36.225 	 -14.28 	 0.28 	
-289 	 -918 	 -674 	40.46 	 -15.435 	 -0.77 	
-284 	 -932 	 -677 	44.905 	 -16.765 	 -1.4 	
-294 	 -945 	 -676 	50.12 	 -18.06 	 -1.785 	
-289 	 -960 	 -678 	55.79 	 -19.6 	 -2.275 	
-280 	 -980 	 -690 	62.055 	 -21 	 -3.78 	
-268 	 -1019 	 -683 	69.02 	 -22.295 	 -7.28 	
-256 	 -1070 	 -669 	76.615 	 -23.415 	 -12.985 	
-247 	 -1127 	 -655 	85.12 	 -24.15 	 -20.37 	
-240 	 -1157 	 -631 	94.43 	 -24.745 	 -28.84 	
-218 	 -1163 	 -596 	104.125 	 -25.095 	 -37.135 	
-186 	 -1185 	 -555 	113.89 	 -24.885 	 -42.525 	
-136 	 -1197 	 -502 	123.445 	 -24.01 	 -42.525 	
-112 	 -1176 	 -388 	132.545 	 -22.435 	 -38.045 	
-178 	 -1097 	 -62 	140 	 -20.09 	 -33.18 	
-418 	 -1075 	 545 	143.185 	 -17.71 	 -31.045 	
-963 	 -1328 	 1420 	139.055 	 -17.01 	 -31.08 	
-1309 	 -1521 	 2758 	124.005 	 -19.495 	 -40.67 	
-1296 	 -1590 	 4137 	89.005 	 -20.58 	 -68.39 	
-557 	 -308 	 4888 	20.125 	 -12.495 	 -95.62 	
-45 	 680 	 4689 	-93.31 	 6.755 	 -76.09 	
807 	 1758 	 3974 	-245.875 	 30.905 	 -11.27 	
1249 	 2561 	 2805 	-436.31 	 76.685 	 61.04 	
1491 	 3337 	 951 	-648.095 	 130.13 	 119.665 	
1462 	 4109 	 -1319 	-856.17 	 190.575 	 184.45 	
1199 	 4534 	 -3673 	-1036.38 	 256.41 	 262.36 	
1225 	 3996 	 -5395 	-1136.87 	 320.53 	 313.215 	
658 	 1967 	 -5421 	-1146.74 	 378.175 	 299.25 	
-319 	 99 	 -3928 	-1145.2 	 391.79 	 237.23 	
-1158 	 -1151 	 -1712 	-1079.96 	 357.105 	 197.995 	
-904 	 -1970 	 -322 	-906.99 	 291.83 	 159.215 	
-655 	 -1988 	 369 	-682.185 	 205.065 	 48.265 	
-208 	 -962 	 185 	-442.505 	 100.66 	 -74.515 	
414 	 715 	 -216 	-212.45 	 9.975 	 -111.055 	
818 	 1734 	 -907 	-29.505 	 -54.6 	 -75.25 	
986 	 2472 	 -1728 	111.615 	 -98.84 	 -11.095 	
930 	 2400 	 -2458 	202.475 	 -123.515 	 30.765 	
699 	 2124 	 -2891 	255.08 	 -135.065 	 28.7 	
406 	 1855 	 -2919 	281.435 	 -134.89 	 14.42 	
246 	 1645 	 -2701 	288.085 	 -128.905 	 12.145 	
121 	 1489 	 -2454 	279.86 	 -116.515 	 16.73 	
-22 	 1392 	 -2328 	262.115 	 -100.03 	 17.185 	
-8 	 1311 	 -2301 	240.415 	 -84.385 	 5.67 	
-162 	 1256 	 -2099 	216.055 	 -65.625 	 -5.25 	
-335 	 1082 	 -1901 	189.49 	 -49.07 	 2.94 	
-482 	 911 	 -1697 	167.86 	 -36.715 	 26.88 	
-532 	 662 	 -1562 	151.2 	 -29.855 	 48.615 	
-587 	 505 	 -1410 	139.23 	 -24.815 	 57.995 	
-725 	 287 	 -1317 	132.02 	 -21.56 	 54.915 	
-664 	 192 	 -1259 	132.755 	 -23.905 	 39.165 	
-718 	 4 	 -1156 	134.89 	 -24.43 	 16.87 	
-712 	 -15 	 -1117 	140.63 	 -26.565 	 -3.5 	
-678 	 -72 	 -1094 	147.175 	 -29.19 	 -16.205 	
-627 	 -92 	 -1060 	153.475 	 -31.675 	 -22.33 	
-548 	 -98 	 -1035 	159.215 	 -34.265 	 -25.025 	
-458 	 -130 	 -1011 	162.995 	 -36.33 	 -25.305 	
-362 	 -111 	 -978 	166.39 	 -38.01 	 -22.75 	
-315 	 -115 	 -912 	168.56 	 -39.41 	 -17.71 	
-271 	 -139 	 -861 	169.575 	 -40.845 	 -14.595 	
-196 	 -193 	 -835 	169.96 	 -41.58 	 -20.755 	
-95 	 -199 	 -852 	170.275 	 -41.755 	 -35.805 	
-83 	 -150 	 -861 	170.765 	 -40.81 	 -48.545 	
-63 	 -148 	 -835 	170.17 	 -40.39 	 -49.245 	
-73 	 -195 	 -827 	168.77 	 -40.39 	 -37.555 	
-87 	 -228 	 -850 	167.615 	 -41.825 	 -19.915 	
-116 	 -281 	 -843 	166.39 	 -44.03 	 -3.885 	
-160 	 -351 	 -818 	164.64 	 -47.145 	 5.635 	
-186 	 -384 	 -808 	163.065 	 -50.855 	 6.545 	
-246 	 -375 	 -797 	162.19 	 -54.67 	 -1.575 	
-289 	 -458 	 -777 	160.685 	 -58.415 	 -17.57 	
-253 	 -532 	 -781 	160.16 	 -61.74 	 -41.615 	
-214 	 -552 	 -797 	160.895 	 -63.63 	 -70.385 	
-225 	 -561 	 -770 	162.4 	 -64.575 	 -94.465 	
-242 	 -639 	 -747 	164.22 	 -65.17 	 -106.4 	
-222 	 -650 	 -734 	167.615 	 -65.8 	 -106.75 	
-172 	 -696 	 -729 	171.22 	 -66.395 	 -100.24 	
-113 	 -714 	 -733 	175.245 	 -66.43 	 -91.42 	
-61 	 -775 	 -709 	179.585 	 -66.08 	 -82.6 	
-44 	 -876 	 -678 	184.135 	 -65.1 	 -74.025 	
-11 	 -966 	 -631 	190.12 	 -64.12 	 -67.025 	
6 	 -1098 	 -524 	195.895 	 -62.09 	 -63.49 	
109 	 -1258 	 -374 	201.88 	 -59.465 	 -64.645 	
70 	 -1129 	 86 	206.92 	 -54.915 	 -64.505 	
-315 	 -1286 	 682 	202.3 	 -51.1 	 -44.345 	
-867 	 -1337 	 1448 	187.075 	 -50.575 	 2.24 	
-1881 	 -1308 	 2692 	151.27 	 -52.815 	 52.71 	
-2241 	 -1289 	 3627 	86.905 	 -58.38 	 54.67 	
-1658 	 -530 	 4076 	-8.155 	 -49.315 	 -25.62 	
-902 	 348 	 3988 	-141.225 	 -30.905 	 -116.935 	
-132 	 1423 	 3226 	-305.305 	 -4.62 	 -114.73 	
332 	 2120 	 1936 	-494.725 	 35.49 	 -13.72 	
969 	 2426 	 121 	-689.255 	 86.135 	 101.045 	
1407 	 2930 	 -1846 	-865.515 	 156.695 	 169.47 	
1897 	 3249 	 -3745 	-1009.09 	 229.635 	 212.765 	
1910 	 2330 	 -4791 	-1098.69 	 306.565 	 252 	
1444 	 630 	 -4223 	-1105.65 	 364.035 	 252.7 	
724 	 -416 	 -2335 	-1035.9 	 381.745 	 201.215 	
68 	 -1863 	 -903 	-905.975 	 354.13 	 117.67 	
396 	 -1492 	 -96 	-704.13 	 269.395 	 -2.345 	
-116 	 -422 	 406 	-487.305 	 175.7 	 -31.465 	
411 	 164 	 -75 	-277.935 	 78.575 	 56.525 	
146 	 930 	 -469 	-83.895 	 3.535 	 140.525 	
292 	 1327 	 -1086 	64.75 	 -75.985 	 130.305 	
257 	 1747 	 -1747 	168.945 	 -133.14 	 55.3 	
19 	 1743 	 -2288 	225.96 	 -167.58 	 -27.685 	
-162 	 1919 	 -2401 	257.11 	 -183.12 	 -73.045 	
-156 	 1619 	 -2294 	259.875 	 -182.805 	 -93.17 	
210 	 1379 	 -2225 	252.28 	 -173.25 	 -113.4 	
195 	 1189 	 -2030 	238.14 	 -150.535 	 -119.35 	
251 	 1000 	 -1850 	222.25 	 -126.245 	 -99.085 	
165 	 730 	 -1621 	207.48 	 -100.24 	 -66.535 	
77 	 469 	 -1446 	193.795 	 -77.385 	 -37.065 	
-78 	 298 	 -1378 	183.925 	 -56.875 	 -13.825 	
-136 	 153 	 -1394 	177.415 	 -39.06 	 1.015 	
-151 	 145 	 -1475 	173.845 	 -25.235 	 4.585 	
-279 	 138 	 -1491 	171.325 	 -13.02 	 1.925 	
-399 	 89 	 -1473 	168.875 	 -4.025 	 0.42 	
-474 	 31 	 -1461 	167.755 	 2.135 	 0.525 	
-513 	 -1 	 -1439 	169.68 	 4.83 	 -0.455 	
-536 	 -81 	 -1353 	172.725 	 5.18 	 -3.395 	
-568 	 -156 	 -1265 	176.645 	 3.745 	 -6.475 	
-544 	 -198 	 -1220 	182.455 	 -0.175 	 -2.66 	
-475 	 -230 	 -1180 	188.79 	 -5.25 	 9.66 	
-377 	 -298 	 -1099 	194.95 	 -10.815 	 19.46 	
-244 	 -439 	 -1044 	198.905 	 -16.275 	 16.415 	
-173 	 -434 	 -992 	203.14 	 -19.985 	 3.57 	
-143 	 -432 	 -924 	205.345 	 -23.275 	 -6.405 	
-119 	 -441 	 -878 	205.905 	 -26.565 	 -6.335 	
-114 	 -421 	 -830 	205.275 	 -29.855 	 0.245 	
-105 	 -390 	 -799 	202.79 	 -33.46 	 6.93 	
-115 	 -347 	 -768 	198.625 	 -36.75 	 11.095 	
-118 	 -288 	 -718 	192.71 	 -40.355 	 14.42 	
-175 	 -318 	 -699 	184.59 	 -43.68 	 21 	
-193 	 -262 	 -712 	176.26 	 -47.6 	 28.175 	
-194 	 -337 	 -696 	166.915 	 -51.135 	 27.825 	
-173 	 -446 	 -683 	156.87 	 -53.97 	 15.995 	
-182 	 -485 	 -675 	147.875 	 -55.72 	 -2.135 	
-210 	 -496 	 -665 	140.07 	 -57.54 	 -16.94 	
-245 	 -512 	 -635 	133.385 	 -59.185 	 -22.435 	
-256 	 -518 	 -586 	127.505 	 -61.53 	 -19.565 	
-250 	 -551 	 -567 	122.36 	 -64.015 	 -11.69 	
-245 	 -569 	 -559 	117.845 	 -66.15 	 -1.68 	
-236 	 -609 	 -562 	113.75 	 -68.25 	 6.545 	
-225 	 -635 	 -556 	110.215 	 -69.545 	 8.155 	
-222 	 -695 	 -536 	106.82 	 -69.965 	 2.415 	
-216 	 -790 	 -500 	104.58 	 -69.965 	 -8.015 	
-233 	 -896 	 -447 	103.775 	 -69.23 	 -19.74 	
-240 	 -952 	 -408 	104.545 	 -68.355 	 -30.87 	
-253 	 -987 	 -379 	106.715 	 -67.2 	 -39.62 	
-263 	 -986 	 -337 	109.515 	 -65.8 	 -43.155 	
-300 	 -953 	 -275 	112.07 	 -64.54 	 -40.425 	
-341 	 -904 	 -132 	113.96 	 -63.42 	 -32.305 	
-621 	 -942 	 201 	112.805 	 -61.565 	 -17.955 	
-1150 	 -831 	 885 	108.185 	 -62.37 	 -0.035 	
-1939 	 -978 	 2019 	93.38 	 -65.45 	 21.63 	
-2676 	 -1444 	 3380 	59.29 	 -70.175 	 47.075 	
-1967 	 -967 	 3819 	-4.515 	 -70.945 	 34.86 	
-1090 	 -138 	 3478 	-103.18 	 -45.325 	 -40.635 	
-271 	 947 	 2987 	-234.045 	 -13.44 	 -114.765 	
444 	 1899 	 1972 	-404.985 	 37.66 	 -93.45 	
895 	 2618 	 360 	-596.785 	 98.77 	 18.725 	
1599 	 2950 	 -1517 	-781.515 	 170.38 	 132.825 	
1735 	 3032 	 -3204 	-942.935 	 257.705 	 191.45 	
2013 	 2706 	 -4605 	-1060.43 	 337.4 	 202.965 	
1374 	 976 	 -4697 	-1103.69 	 398.895 	 179.48 	
581 	 -319 	 -2897 	-1057.42 	 408.66 	 123.34 	
-239 	 -1756 	 -954 	-955.71 	 375.725 	 64.96 	
-110 	 -1573 	 -541 	-777.56 	 287.49 	 24.36 	
-296 	 -986 	 -52 	-559.895 	 189.525 	 56.21 	
-217 	 -177 	 -74 	-346.08 	 97.23 	 108.15 	
26 	 407 	 -559 	-159.075 	 9.87 	 90.055 	
486 	 1493 	 -930 	-0.455 	 -69.65 	 8.925 	
659 	 1938 	 -1512 	106.785 	 -126.315 	 -49.735 	
756 	 2158 	 -2044 	177.59 	 -156.555 	 -51.065 	
393 	 1809 	 -2298 	211.96 	 -165.34 	 -27.265 	
271 	 1442 	 -2353 	225.855 	 -164.99 	 -24.15 	
115 	 1152 	 -2209 	225.33 	 -148.96 	 -49.98 	
99 	 952 	 -2055 	217.21 	 -126.77 	 -84.42 	
-120 	 941 	 -1771 	209.685 	 -98.84 	 -98.42 	
-346 	 807 	 -1483 	197.225 	 -71.155 	 -84.63 	
-315 	 573 	 -1400 	183.995 	 -47.425 	 -58.065 	
-184 	 425 	 -1447 	174.615 	 -26.11 	 -34.825 	
